IV MEASUREMENT
:start
2016-12-19 12:00:54
:stop
2016-12-19 12:10:19
:device
M200Y_06_HPKTS_2_MOSFET
:tester
Martin
:atmosphere
Air
:environment
Probe Station
:Instruments
VI Kei6487,CV AgE4980A,GI NM,T Kei2700
:Comment
circular, nMOSFET, Ids vs Vgate, Vback= -0.5V,Vds=0.05V, Bef.irrad.
 power lower < 1mW, probe station, wait. time 0 sec,after gluing
Annealing time [min]:
0@0
:temperature [C]
19.430943
:start,stop voltage [V] & number of points
-6.000000,19.000000,126
:Voltage increment and increment speed
1.000000,0.500000
:polarity and ramp mode
negative,0
:Current meter range
Auto
:Averaging (int,ext,NPLC,Median Rank)
3,5
3.000000
3
:legend
bias [V],T[C],Current[Amp],Guard Current[Amp]
BEGIN
-6.000000E+0	1.941435E+1	-3.660233E-12	0.000000E+0
-5.800000E+0	1.941559E+1	-3.674032E-12	0.000000E+0
-5.600000E+0	1.941559E+1	-3.652514E-12	0.000000E+0
-5.400000E+0	1.941619E+1	-3.745254E-12	0.000000E+0
-5.200000E+0	1.941619E+1	-3.624621E-12	0.000000E+0
-5.000000E+0	1.941619E+1	-3.655183E-12	0.000000E+0
-4.800000E+0	1.941648E+1	-3.561320E-12	0.000000E+0
-4.600000E+0	1.941648E+1	-3.557843E-12	0.000000E+0
-4.400000E+0	1.941732E+1	-3.565786E-12	0.000000E+0
-4.200000E+0	1.941732E+1	-3.596707E-12	0.000000E+0
-4.000000E+0	1.941786E+1	-3.610372E-12	0.000000E+0
-3.800000E+0	1.941786E+1	-3.566167E-12	0.000000E+0
-3.600000E+0	1.941861E+1	-3.592017E-12	0.000000E+0
-3.400000E+0	1.941861E+1	-3.568993E-12	0.000000E+0
-3.200000E+0	1.941871E+1	-3.541304E-12	0.000000E+0
-3.000000E+0	1.941871E+1	-3.608554E-12	0.000000E+0
-2.800000E+0	1.941932E+1	-3.502102E-12	0.000000E+0
-2.600000E+0	1.941932E+1	-3.528536E-12	0.000000E+0
-2.400000E+0	1.942019E+1	-3.461689E-12	0.000000E+0
-2.200000E+0	1.942019E+1	-3.445713E-12	0.000000E+0
-2.000000E+0	1.942033E+1	-3.483096E-12	0.000000E+0
-1.800000E+0	1.942033E+1	-3.510651E-12	0.000000E+0
-1.600000E+0	1.942090E+1	-3.469835E-12	0.000000E+0
-1.400000E+0	1.942090E+1	-3.486103E-12	0.000000E+0
-1.200000E+0	1.942090E+1	-3.530219E-12	0.000000E+0
-1.000000E+0	1.942154E+1	-3.562082E-12	0.000000E+0
-8.000000E-1	1.942154E+1	-3.595584E-12	0.000000E+0
-6.000000E-1	1.942176E+1	-3.680359E-12	0.000000E+0
-4.000000E-1	1.942176E+1	-3.846499E-12	0.000000E+0
-2.000000E-1	1.942223E+1	-4.183176E-12	0.000000E+0
3.053113E-15	1.942223E+1	-4.931794E-12	0.000000E+0
2.000000E-1	1.942283E+1	-6.369092E-12	0.000000E+0
4.000000E-1	1.942283E+1	-8.435855E-12	0.000000E+0
6.000000E-1	1.942377E+1	-1.078304E-11	0.000000E+0
8.000000E-1	1.942377E+1	-1.324175E-11	0.000000E+0
1.000000E+0	1.942389E+1	-1.585129E-11	0.000000E+0
1.200000E+0	1.942389E+1	-1.867848E-11	0.000000E+0
1.400000E+0	1.942486E+1	-2.145320E-11	0.000000E+0
1.600000E+0	1.942486E+1	-2.394624E-11	0.000000E+0
1.800000E+0	1.942516E+1	-2.586445E-11	0.000000E+0
2.000000E+0	1.942516E+1	-2.718248E-11	0.000000E+0
2.200000E+0	1.942584E+1	-2.806951E-11	0.000000E+0
2.400000E+0	1.942584E+1	-2.826834E-11	0.000000E+0
2.600000E+0	1.942584E+1	-2.468197E-11	0.000000E+0
2.800000E+0	1.942629E+1	5.987302E-12	0.000000E+0
3.000000E+0	1.942629E+1	2.436359E-10	0.000000E+0
3.200000E+0	1.942698E+1	2.028570E-9	0.000000E+0
3.400000E+0	1.942698E+1	1.346476E-8	0.000000E+0
3.600000E+0	1.942785E+1	5.899501E-8	0.000000E+0
3.800000E+0	1.942785E+1	1.601030E-7	0.000000E+0
4.000000E+0	1.942767E+1	3.091540E-7	0.000000E+0
4.200000E+0	1.942767E+1	4.876809E-7	0.000000E+0
4.400000E+0	1.942851E+1	6.832366E-7	0.000000E+0
4.600000E+0	1.942851E+1	8.880635E-7	0.000000E+0
4.800000E+0	1.942913E+1	1.099280E-6	0.000000E+0
5.000000E+0	1.942913E+1	1.314136E-6	0.000000E+0
5.200000E+0	1.942970E+1	1.539596E-6	0.000000E+0
5.400000E+0	1.942970E+1	1.760042E-6	0.000000E+0
5.600000E+0	1.942991E+1	1.979025E-6	0.000000E+0
5.800000E+0	1.942991E+1	2.198800E-6	0.000000E+0
6.000000E+0	1.943010E+1	2.417428E-6	0.000000E+0
6.200000E+0	1.943010E+1	2.635440E-6	0.000000E+0
6.400000E+0	1.943119E+1	2.852894E-6	0.000000E+0
6.600000E+0	1.943119E+1	3.069771E-6	0.000000E+0
6.800000E+0	1.943139E+1	3.285508E-6	0.000000E+0
7.000000E+0	1.943139E+1	3.500619E-6	0.000000E+0
7.200000E+0	1.943172E+1	3.714136E-6	0.000000E+0
7.400000E+0	1.943172E+1	3.926687E-6	0.000000E+0
7.600000E+0	1.943172E+1	4.138356E-6	0.000000E+0
7.800000E+0	1.943278E+1	4.348738E-6	0.000000E+0
8.000000E+0	1.943278E+1	4.558188E-6	0.000000E+0
8.200000E+0	1.943317E+1	4.766736E-6	0.000000E+0
8.400000E+0	1.943317E+1	4.973621E-6	0.000000E+0
8.600000E+0	1.943394E+1	5.179711E-6	0.000000E+0
8.800000E+0	1.943394E+1	5.384711E-6	0.000000E+0
9.000000E+0	1.943392E+1	5.588092E-6	0.000000E+0
9.200000E+0	1.943392E+1	5.790422E-6	0.000000E+0
9.400000E+0	1.943481E+1	5.991721E-6	0.000000E+0
9.600000E+0	1.943481E+1	6.191542E-6	0.000000E+0
9.800000E+0	1.943498E+1	6.390945E-6	0.000000E+0
1.000000E+1	1.943498E+1	6.588616E-6	0.000000E+0
1.020000E+1	1.943628E+1	6.785674E-6	0.000000E+0
1.040000E+1	1.943628E+1	6.981630E-6	0.000000E+0
1.060000E+1	1.943619E+1	7.175943E-6	0.000000E+0
1.080000E+1	1.943619E+1	7.369974E-6	0.000000E+0
1.100000E+1	1.943677E+1	7.562320E-6	0.000000E+0
1.120000E+1	1.943677E+1	7.753802E-6	0.000000E+0
1.140000E+1	1.943677E+1	7.944656E-6	0.000000E+0
1.160000E+1	1.943732E+1	8.133909E-6	0.000000E+0
1.180000E+1	1.943732E+1	8.322484E-6	0.000000E+0
1.200000E+1	1.943816E+1	8.509928E-6	0.000000E+0
1.220000E+1	1.943816E+1	8.695477E-6	0.000000E+0
1.240000E+1	1.943816E+1	8.880789E-6	0.000000E+0
1.260000E+1	1.943816E+1	9.072377E-6	0.000000E+0
1.280000E+1	1.943945E+1	9.257777E-6	0.000000E+0
1.300000E+1	1.943945E+1	9.440628E-6	0.000000E+0
1.320000E+1	1.943969E+1	9.622105E-6	0.000000E+0
1.340000E+1	1.943969E+1	9.802816E-6	0.000000E+0
1.360000E+1	1.944035E+1	9.982981E-6	0.000000E+0
1.380000E+1	1.944035E+1	1.016197E-5	0.000000E+0
1.400000E+1	1.944044E+1	1.034022E-5	0.000000E+0
1.420000E+1	1.944044E+1	1.051757E-5	0.000000E+0
1.440000E+1	1.944098E+1	1.069407E-5	0.000000E+0
1.460000E+1	1.944098E+1	1.087004E-5	0.000000E+0
1.480000E+1	1.944098E+1	1.104446E-5	0.000000E+0
1.500000E+1	1.944175E+1	1.121879E-5	0.000000E+0
1.520000E+1	1.944175E+1	1.139217E-5	0.000000E+0
1.540000E+1	1.944215E+1	1.156413E-5	0.000000E+0
1.560000E+1	1.944215E+1	1.173630E-5	0.000000E+0
1.580000E+1	1.944268E+1	1.190684E-5	0.000000E+0
1.600000E+1	1.944268E+1	1.207738E-5	0.000000E+0
1.620000E+1	1.944361E+1	1.224700E-5	0.000000E+0
1.640000E+1	1.944361E+1	1.241564E-5	0.000000E+0
1.660000E+1	1.944433E+1	1.258323E-5	0.000000E+0
1.680000E+1	1.944433E+1	1.275027E-5	0.000000E+0
1.700000E+1	1.944472E+1	1.291704E-5	0.000000E+0
1.720000E+1	1.944472E+1	1.308296E-5	0.000000E+0
1.740000E+1	1.944485E+1	1.324783E-5	0.000000E+0
1.760000E+1	1.944485E+1	1.341234E-5	0.000000E+0
1.780000E+1	1.944524E+1	1.357622E-5	0.000000E+0
1.800000E+1	1.944524E+1	1.373937E-5	0.000000E+0
1.820000E+1	1.944592E+1	1.390202E-5	0.000000E+0
1.840000E+1	1.944592E+1	1.406442E-5	0.000000E+0
1.860000E+1	1.944592E+1	1.422555E-5	0.000000E+0
1.880000E+1	1.944657E+1	1.438622E-5	0.000000E+0
1.900000E+1	1.944657E+1	1.454606E-5	0.000000E+0
END