IV MEASUREMENT
:start
2016-12-19 15:28:56
:stop
2016-12-19 15:38:21
:device
M200Y_06_HPKTS_2_MOSFET
:tester
Martin
:atmosphere
Air
:environment
Probe Station
:Instruments
VI Kei6487,CV AgE4980A,GI NM,T Kei2700
:Comment
circular, nMOSFET, Ids vs Vgate, Vback= -2.3V,Vds=0.05V, Bef.irrad.
 power lower < 1mW, probe station, wait. time 0 sec,after gluing
Annealing time [min]:
0@0
:temperature [C]
19.852975
:start,stop voltage [V] & number of points
-6.000000,19.000000,126
:Voltage increment and increment speed
1.000000,0.500000
:polarity and ramp mode
negative,0
:Current meter range
Auto
:Averaging (int,ext,NPLC,Median Rank)
3,5
3.000000
3
:legend
bias [V],T[C],Current[Amp],Guard Current[Amp]
BEGIN
-6.000000E+0	1.984246E+1	-4.902750E-12	0.000000E+0
-5.800000E+0	1.984335E+1	-4.910829E-12	0.000000E+0
-5.600000E+0	1.984335E+1	-4.884127E-12	0.000000E+0
-5.400000E+0	1.984358E+1	-4.937015E-12	0.000000E+0
-5.200000E+0	1.984358E+1	-4.954428E-12	0.000000E+0
-5.000000E+0	1.984358E+1	-4.882713E-12	0.000000E+0
-4.800000E+0	1.984400E+1	-4.924360E-12	0.000000E+0
-4.600000E+0	1.984400E+1	-4.791342E-12	0.000000E+0
-4.400000E+0	1.984459E+1	-4.905330E-12	0.000000E+0
-4.200000E+0	1.984459E+1	-4.841604E-12	0.000000E+0
-4.000000E+0	1.984476E+1	-4.873558E-12	0.000000E+0
-3.800000E+0	1.984476E+1	-4.870506E-12	0.000000E+0
-3.600000E+0	1.984516E+1	-4.878090E-12	0.000000E+0
-3.400000E+0	1.984516E+1	-4.839944E-12	0.000000E+0
-3.200000E+0	1.984527E+1	-4.828702E-12	0.000000E+0
-3.000000E+0	1.984527E+1	-4.900148E-12	0.000000E+0
-2.800000E+0	1.984561E+1	-4.935915E-12	0.000000E+0
-2.600000E+0	1.984561E+1	-4.993315E-12	0.000000E+0
-2.400000E+0	1.984640E+1	-5.102728E-12	0.000000E+0
-2.200000E+0	1.984640E+1	-5.270616E-12	0.000000E+0
-2.000000E+0	1.984641E+1	-5.611488E-12	0.000000E+0
-1.800000E+0	1.984641E+1	-6.446536E-12	0.000000E+0
-1.600000E+0	1.984701E+1	-8.027638E-12	0.000000E+0
-1.400000E+0	1.984701E+1	-1.013523E-11	0.000000E+0
-1.200000E+0	1.984701E+1	-1.257642E-11	0.000000E+0
-1.000000E+0	1.984741E+1	-1.511428E-11	0.000000E+0
-8.000000E-1	1.984741E+1	-1.781455E-11	0.000000E+0
-6.000000E-1	1.984754E+1	-2.083321E-11	0.000000E+0
-4.000000E-1	1.984754E+1	-2.374345E-11	0.000000E+0
-2.000000E-1	1.984749E+1	-2.626309E-11	0.000000E+0
3.053113E-15	1.984749E+1	-2.810861E-11	0.000000E+0
2.000000E-1	1.984842E+1	-2.941450E-11	0.000000E+0
4.000000E-1	1.984842E+1	-3.044977E-11	0.000000E+0
6.000000E-1	1.984856E+1	-3.124636E-11	0.000000E+0
8.000000E-1	1.984856E+1	-3.204508E-11	0.000000E+0
1.000000E+0	1.984963E+1	-3.277370E-11	0.000000E+0
1.200000E+0	1.984963E+1	-3.352904E-11	0.000000E+0
1.400000E+0	1.984885E+1	-3.432991E-11	0.000000E+0
1.600000E+0	1.984885E+1	-3.513191E-11	0.000000E+0
1.800000E+0	1.984936E+1	-3.593794E-11	0.000000E+0
2.000000E+0	1.984936E+1	-3.671227E-11	0.000000E+0
2.200000E+0	1.984976E+1	-3.753127E-11	0.000000E+0
2.400000E+0	1.984976E+1	-3.834367E-11	0.000000E+0
2.600000E+0	1.984976E+1	-3.918629E-11	0.000000E+0
2.800000E+0	1.984987E+1	-3.996876E-11	0.000000E+0
3.000000E+0	1.984987E+1	-4.084379E-11	0.000000E+0
3.200000E+0	1.985010E+1	-4.168728E-11	0.000000E+0
3.400000E+0	1.985010E+1	-4.249807E-11	0.000000E+0
3.600000E+0	1.985069E+1	-4.341424E-11	0.000000E+0
3.800000E+0	1.985069E+1	-4.427868E-11	0.000000E+0
4.000000E+0	1.985047E+1	-4.495498E-11	0.000000E+0
4.200000E+0	1.985047E+1	-4.570291E-11	0.000000E+0
4.400000E+0	1.985102E+1	-4.603022E-11	0.000000E+0
4.600000E+0	1.985102E+1	-4.606303E-11	0.000000E+0
4.800000E+0	1.985183E+1	-4.588733E-11	0.000000E+0
5.000000E+0	1.985183E+1	-4.338964E-11	0.000000E+0
5.200000E+0	1.985175E+1	7.561962E-10	0.000000E+0
5.400000E+0	1.985175E+1	3.622466E-8	0.000000E+0
5.600000E+0	1.985232E+1	1.618023E-7	0.000000E+0
5.800000E+0	1.985232E+1	3.410341E-7	0.000000E+0
6.000000E+0	1.985202E+1	5.407476E-7	0.000000E+0
6.200000E+0	1.985202E+1	7.485555E-7	0.000000E+0
6.400000E+0	1.985297E+1	9.607468E-7	0.000000E+0
6.600000E+0	1.985297E+1	1.175444E-6	0.000000E+0
6.800000E+0	1.985297E+1	1.390635E-6	0.000000E+0
7.000000E+0	1.985297E+1	1.606168E-6	0.000000E+0
7.200000E+0	1.985297E+1	1.821635E-6	0.000000E+0
7.400000E+0	1.985297E+1	2.036640E-6	0.000000E+0
7.600000E+0	1.985297E+1	2.251896E-6	0.000000E+0
7.800000E+0	1.985399E+1	2.465397E-6	0.000000E+0
8.000000E+0	1.985399E+1	2.678299E-6	0.000000E+0
8.200000E+0	1.985409E+1	2.890279E-6	0.000000E+0
8.400000E+0	1.985409E+1	3.100859E-6	0.000000E+0
8.600000E+0	1.985471E+1	3.310973E-6	0.000000E+0
8.800000E+0	1.985471E+1	3.519820E-6	0.000000E+0
9.000000E+0	1.985485E+1	3.727342E-6	0.000000E+0
9.200000E+0	1.985485E+1	3.933646E-6	0.000000E+0
9.400000E+0	1.985501E+1	4.138845E-6	0.000000E+0
9.600000E+0	1.985501E+1	4.342623E-6	0.000000E+0
9.800000E+0	1.985561E+1	4.545917E-6	0.000000E+0
1.000000E+1	1.985561E+1	4.747417E-6	0.000000E+0
1.020000E+1	1.985557E+1	4.947653E-6	0.000000E+0
1.040000E+1	1.985557E+1	5.147423E-6	0.000000E+0
1.060000E+1	1.985577E+1	5.345841E-6	0.000000E+0
1.080000E+1	1.985577E+1	5.542958E-6	0.000000E+0
1.100000E+1	1.985577E+1	5.738943E-6	0.000000E+0
1.120000E+1	1.985684E+1	5.934749E-6	0.000000E+0
1.140000E+1	1.985684E+1	6.128977E-6	0.000000E+0
1.160000E+1	1.985697E+1	6.321713E-6	0.000000E+0
1.180000E+1	1.985697E+1	6.513909E-6	0.000000E+0
1.200000E+1	1.985757E+1	6.704588E-6	0.000000E+0
1.220000E+1	1.985757E+1	6.893261E-6	0.000000E+0
1.240000E+1	1.985711E+1	7.081413E-6	0.000000E+0
1.260000E+1	1.985711E+1	7.275949E-6	0.000000E+0
1.280000E+1	1.985779E+1	7.465224E-6	0.000000E+0
1.300000E+1	1.985779E+1	7.651889E-6	0.000000E+0
1.320000E+1	1.985839E+1	7.836608E-6	0.000000E+0
1.340000E+1	1.985839E+1	8.021203E-6	0.000000E+0
1.360000E+1	1.985929E+1	8.205313E-6	0.000000E+0
1.380000E+1	1.985929E+1	8.386725E-6	0.000000E+0
1.400000E+1	1.985902E+1	8.567263E-6	0.000000E+0
1.420000E+1	1.985902E+1	8.746894E-6	0.000000E+0
1.440000E+1	1.985935E+1	8.925047E-6	0.000000E+0
1.460000E+1	1.985935E+1	9.104802E-6	0.000000E+0
1.480000E+1	1.985935E+1	9.282193E-6	0.000000E+0
1.500000E+1	1.985974E+1	9.458602E-6	0.000000E+0
1.520000E+1	1.985974E+1	9.636706E-6	0.000000E+0
1.540000E+1	1.986049E+1	9.811128E-6	0.000000E+0
1.560000E+1	1.986049E+1	9.984826E-6	0.000000E+0
1.580000E+1	1.986090E+1	1.015873E-5	0.000000E+0
1.600000E+1	1.986090E+1	1.033076E-5	0.000000E+0
1.620000E+1	1.986097E+1	1.050191E-5	0.000000E+0
1.640000E+1	1.986097E+1	1.067474E-5	0.000000E+0
1.660000E+1	1.986091E+1	1.084172E-5	0.000000E+0
1.680000E+1	1.986091E+1	1.101155E-5	0.000000E+0
1.700000E+1	1.986227E+1	1.118109E-5	0.000000E+0
1.720000E+1	1.986227E+1	1.134898E-5	0.000000E+0
1.740000E+1	1.986264E+1	1.151589E-5	0.000000E+0
1.760000E+1	1.986264E+1	1.168402E-5	0.000000E+0
1.780000E+1	1.986279E+1	1.185216E-5	0.000000E+0
1.800000E+1	1.986279E+1	1.201835E-5	0.000000E+0
1.820000E+1	1.986279E+1	1.218396E-5	0.000000E+0
1.840000E+1	1.986278E+1	1.234642E-5	0.000000E+0
1.860000E+1	1.986278E+1	1.250897E-5	0.000000E+0
1.880000E+1	1.986298E+1	1.267226E-5	0.000000E+0
1.900000E+1	1.986298E+1	1.283325E-5	0.000000E+0
END