IV MEASUREMENT
:start
2016-12-19 10:51:01
:stop
2016-12-19 11:00:24
:device
M200Y_06_HPKTS_2_MOSFET
:tester
Martin
:atmosphere
Air
:environment
Probe Station
:Instruments
VI Kei6487,CV AgE4980A,GI NM,T Kei2700
:Comment
circular, nMOSFET, Ids vs Vgate, Vback= 0.3V,Vds=0.05V, Bef.irrad.
 power lower < 1mW, probe station, wait. time 0 sec,after gluing
Annealing time [min]:
0@0
:temperature [C]
19.186911
:start,stop voltage [V] & number of points
-6.000000,19.000000,126
:Voltage increment and increment speed
1.000000,0.500000
:polarity and ramp mode
negative,0
:Current meter range
Auto
:Averaging (int,ext,NPLC,Median Rank)
3,5
3.000000
3
:legend
bias [V],T[C],Current[Amp],Guard Current[Amp]
BEGIN
-6.000000E+0	1.917326E+1	2.112667E-7	0.000000E+0
-5.800000E+0	1.917374E+1	2.111767E-7	0.000000E+0
-5.600000E+0	1.917374E+1	2.112001E-7	0.000000E+0
-5.400000E+0	1.917440E+1	2.111745E-7	0.000000E+0
-5.200000E+0	1.917440E+1	2.112061E-7	0.000000E+0
-5.000000E+0	1.917440E+1	2.111917E-7	0.000000E+0
-4.800000E+0	1.917464E+1	2.111604E-7	0.000000E+0
-4.600000E+0	1.917464E+1	2.111245E-7	0.000000E+0
-4.400000E+0	1.917601E+1	2.111980E-7	0.000000E+0
-4.200000E+0	1.917601E+1	2.111782E-7	0.000000E+0
-4.000000E+0	1.917538E+1	2.111655E-7	0.000000E+0
-3.800000E+0	1.917538E+1	2.110859E-7	0.000000E+0
-3.600000E+0	1.917645E+1	2.112111E-7	0.000000E+0
-3.400000E+0	1.917645E+1	2.112378E-7	0.000000E+0
-3.200000E+0	1.917683E+1	2.112215E-7	0.000000E+0
-3.000000E+0	1.917683E+1	2.112185E-7	0.000000E+0
-2.800000E+0	1.917706E+1	2.112050E-7	0.000000E+0
-2.600000E+0	1.917706E+1	2.112096E-7	0.000000E+0
-2.400000E+0	1.917776E+1	2.112723E-7	0.000000E+0
-2.200000E+0	1.917776E+1	2.111930E-7	0.000000E+0
-2.000000E+0	1.917822E+1	2.112071E-7	0.000000E+0
-1.800000E+0	1.917822E+1	2.112372E-7	0.000000E+0
-1.600000E+0	1.917822E+1	2.113865E-7	0.000000E+0
-1.400000E+0	1.917816E+1	2.115669E-7	0.000000E+0
-1.200000E+0	1.917816E+1	2.116833E-7	0.000000E+0
-1.000000E+0	1.917900E+1	2.119265E-7	0.000000E+0
-8.000000E-1	1.917900E+1	2.123090E-7	0.000000E+0
-6.000000E-1	1.917957E+1	2.128123E-7	0.000000E+0
-4.000000E-1	1.917957E+1	2.136194E-7	0.000000E+0
-2.000000E-1	1.917988E+1	2.150242E-7	0.000000E+0
3.053113E-15	1.917988E+1	2.170711E-7	0.000000E+0
2.000000E-1	1.918045E+1	2.204450E-7	0.000000E+0
4.000000E-1	1.918045E+1	2.265644E-7	0.000000E+0
6.000000E-1	1.918018E+1	2.392379E-7	0.000000E+0
8.000000E-1	1.918018E+1	2.668552E-7	0.000000E+0
1.000000E+0	1.918151E+1	3.231014E-7	0.000000E+0
1.200000E+0	1.918151E+1	4.204257E-7	0.000000E+0
1.400000E+0	1.918205E+1	5.589982E-7	0.000000E+0
1.600000E+0	1.918205E+1	7.305943E-7	0.000000E+0
1.800000E+0	1.918249E+1	9.250991E-7	0.000000E+0
2.000000E+0	1.918249E+1	1.133315E-6	0.000000E+0
2.200000E+0	1.918249E+1	1.351877E-6	0.000000E+0
2.400000E+0	1.918236E+1	1.576805E-6	0.000000E+0
2.600000E+0	1.918236E+1	1.805292E-6	0.000000E+0
2.800000E+0	1.918326E+1	2.036594E-6	0.000000E+0
3.000000E+0	1.918326E+1	2.270203E-6	0.000000E+0
3.200000E+0	1.918408E+1	2.503116E-6	0.000000E+0
3.400000E+0	1.918408E+1	2.736928E-6	0.000000E+0
3.600000E+0	1.918413E+1	2.969827E-6	0.000000E+0
3.800000E+0	1.918413E+1	3.202696E-6	0.000000E+0
4.000000E+0	1.918420E+1	3.434480E-6	0.000000E+0
4.200000E+0	1.918420E+1	3.665210E-6	0.000000E+0
4.400000E+0	1.918467E+1	3.895087E-6	0.000000E+0
4.600000E+0	1.918467E+1	4.123375E-6	0.000000E+0
4.800000E+0	1.918537E+1	4.350869E-6	0.000000E+0
5.000000E+0	1.918537E+1	4.577330E-6	0.000000E+0
5.200000E+0	1.918588E+1	4.810887E-6	0.000000E+0
5.400000E+0	1.918588E+1	5.036384E-6	0.000000E+0
5.600000E+0	1.918615E+1	5.258705E-6	0.000000E+0
5.800000E+0	1.918615E+1	5.479255E-6	0.000000E+0
6.000000E+0	1.918655E+1	5.698707E-6	0.000000E+0
6.200000E+0	1.918655E+1	5.916791E-6	0.000000E+0
6.400000E+0	1.918655E+1	6.133046E-6	0.000000E+0
6.600000E+0	1.918719E+1	6.348559E-6	0.000000E+0
6.800000E+0	1.918719E+1	6.561915E-6	0.000000E+0
7.000000E+0	1.918771E+1	6.774520E-6	0.000000E+0
7.200000E+0	1.918771E+1	6.985244E-6	0.000000E+0
7.400000E+0	1.918814E+1	7.194741E-6	0.000000E+0
7.600000E+0	1.918814E+1	7.403212E-6	0.000000E+0
7.800000E+0	1.918848E+1	7.609972E-6	0.000000E+0
8.000000E+0	1.918848E+1	7.815686E-6	0.000000E+0
8.200000E+0	1.918845E+1	8.020319E-6	0.000000E+0
8.400000E+0	1.918845E+1	8.223337E-6	0.000000E+0
8.600000E+0	1.918975E+1	8.425721E-6	0.000000E+0
8.800000E+0	1.918975E+1	8.626174E-6	0.000000E+0
9.000000E+0	1.919025E+1	8.825704E-6	0.000000E+0
9.200000E+0	1.919025E+1	9.024205E-6	0.000000E+0
9.400000E+0	1.919070E+1	9.221177E-6	0.000000E+0
9.600000E+0	1.919070E+1	9.417095E-6	0.000000E+0
9.800000E+0	1.919071E+1	9.612386E-6	0.000000E+0
1.000000E+1	1.919071E+1	9.806112E-6	0.000000E+0
1.020000E+1	1.919071E+1	9.998995E-6	0.000000E+0
1.040000E+1	1.919061E+1	1.019077E-5	0.000000E+0
1.060000E+1	1.919061E+1	1.038123E-5	0.000000E+0
1.080000E+1	1.919135E+1	1.057063E-5	0.000000E+0
1.100000E+1	1.919135E+1	1.075909E-5	0.000000E+0
1.120000E+1	1.919217E+1	1.094640E-5	0.000000E+0
1.140000E+1	1.919217E+1	1.113295E-5	0.000000E+0
1.160000E+1	1.919260E+1	1.131861E-5	0.000000E+0
1.180000E+1	1.919260E+1	1.150287E-5	0.000000E+0
1.200000E+1	1.919290E+1	1.168646E-5	0.000000E+0
1.220000E+1	1.919290E+1	1.186808E-5	0.000000E+0
1.240000E+1	1.919379E+1	1.204973E-5	0.000000E+0
1.260000E+1	1.919379E+1	1.223712E-5	0.000000E+0
1.280000E+1	1.919341E+1	1.241909E-5	0.000000E+0
1.300000E+1	1.919341E+1	1.259785E-5	0.000000E+0
1.320000E+1	1.919414E+1	1.277549E-5	0.000000E+0
1.340000E+1	1.919414E+1	1.295225E-5	0.000000E+0
1.360000E+1	1.919474E+1	1.312856E-5	0.000000E+0
1.380000E+1	1.919474E+1	1.330377E-5	0.000000E+0
1.400000E+1	1.919474E+1	1.347856E-5	0.000000E+0
1.420000E+1	1.919503E+1	1.365183E-5	0.000000E+0
1.440000E+1	1.919503E+1	1.382501E-5	0.000000E+0
1.460000E+1	1.919527E+1	1.399770E-5	0.000000E+0
1.480000E+1	1.919527E+1	1.416909E-5	0.000000E+0
1.500000E+1	1.919597E+1	1.433961E-5	0.000000E+0
1.520000E+1	1.919597E+1	1.450973E-5	0.000000E+0
1.540000E+1	1.919622E+1	1.467809E-5	0.000000E+0
1.560000E+1	1.919622E+1	1.484639E-5	0.000000E+0
1.580000E+1	1.919701E+1	1.501356E-5	0.000000E+0
1.600000E+1	1.919701E+1	1.518097E-5	0.000000E+0
1.620000E+1	1.919743E+1	1.534683E-5	0.000000E+0
1.640000E+1	1.919743E+1	1.551180E-5	0.000000E+0
1.660000E+1	1.919765E+1	1.567638E-5	0.000000E+0
1.680000E+1	1.919765E+1	1.584081E-5	0.000000E+0
1.700000E+1	1.919804E+1	1.600371E-5	0.000000E+0
1.720000E+1	1.919804E+1	1.616629E-5	0.000000E+0
1.740000E+1	1.919804E+1	1.632741E-5	0.000000E+0
1.760000E+1	1.919867E+1	1.648838E-5	0.000000E+0
1.780000E+1	1.919867E+1	1.664921E-5	0.000000E+0
1.800000E+1	1.919860E+1	1.680892E-5	0.000000E+0
1.820000E+1	1.919860E+1	1.696798E-5	0.000000E+0
1.840000E+1	1.919941E+1	1.712682E-5	0.000000E+0
1.860000E+1	1.919941E+1	1.728487E-5	0.000000E+0
1.880000E+1	1.919938E+1	1.744262E-5	0.000000E+0
1.900000E+1	1.919938E+1	1.760009E-5	0.000000E+0
END