IV MEASUREMENT
:start
2016-12-19 11:31:07
:stop
2016-12-19 11:40:32
:device
M200Y_06_HPKTS_2_MOSFET
:tester
Martin
:atmosphere
Air
:environment
Probe Station
:Instruments
VI Kei6487,CV AgE4980A,GI NM,T Kei2700
:Comment
circular, nMOSFET, Ids vs Vgate, Vback= -0.1V,Vds=0.05V, Bef.irrad.
 power lower < 1mW, probe station, wait. time 0 sec,after gluing
Annealing time [min]:
0@0
:temperature [C]
19.320103
:start,stop voltage [V] & number of points
-6.000000,19.000000,126
:Voltage increment and increment speed
1.000000,0.500000
:polarity and ramp mode
negative,0
:Current meter range
Auto
:Averaging (int,ext,NPLC,Median Rank)
3,5
3.000000
3
:legend
bias [V],T[C],Current[Amp],Guard Current[Amp]
BEGIN
-6.000000E+0	1.930359E+1	-3.218047E-12	0.000000E+0
-5.800000E+0	1.930504E+1	-3.221771E-12	0.000000E+0
-5.600000E+0	1.930504E+1	-3.214972E-12	0.000000E+0
-5.400000E+0	1.930500E+1	-3.174514E-12	0.000000E+0
-5.200000E+0	1.930500E+1	-3.204919E-12	0.000000E+0
-5.000000E+0	1.930500E+1	-3.191367E-12	0.000000E+0
-4.800000E+0	1.930561E+1	-3.149450E-12	0.000000E+0
-4.600000E+0	1.930561E+1	-3.160221E-12	0.000000E+0
-4.400000E+0	1.930643E+1	-3.172877E-12	0.000000E+0
-4.200000E+0	1.930643E+1	-3.193745E-12	0.000000E+0
-4.000000E+0	1.930672E+1	-3.178217E-12	0.000000E+0
-3.800000E+0	1.930672E+1	-3.134730E-12	0.000000E+0
-3.600000E+0	1.930741E+1	-3.133226E-12	0.000000E+0
-3.400000E+0	1.930741E+1	-3.097009E-12	0.000000E+0
-3.200000E+0	1.930809E+1	-3.044524E-12	0.000000E+0
-3.000000E+0	1.930809E+1	-3.143122E-12	0.000000E+0
-2.800000E+0	1.930857E+1	-3.092858E-12	0.000000E+0
-2.600000E+0	1.930857E+1	-3.099073E-12	0.000000E+0
-2.400000E+0	1.930827E+1	-3.058301E-12	0.000000E+0
-2.200000E+0	1.930827E+1	-3.030162E-12	0.000000E+0
-2.000000E+0	1.930982E+1	-3.054711E-12	0.000000E+0
-1.800000E+0	1.930982E+1	-2.980998E-12	0.000000E+0
-1.600000E+0	1.931001E+1	-2.988874E-12	0.000000E+0
-1.400000E+0	1.931001E+1	-2.974131E-12	0.000000E+0
-1.200000E+0	1.931001E+1	-2.995741E-12	0.000000E+0
-1.000000E+0	1.931077E+1	-3.024956E-12	0.000000E+0
-8.000000E-1	1.931077E+1	-3.031913E-12	0.000000E+0
-6.000000E-1	1.931120E+1	-3.022488E-12	0.000000E+0
-4.000000E-1	1.931120E+1	-3.016092E-12	0.000000E+0
-2.000000E-1	1.931111E+1	-3.186160E-12	0.000000E+0
3.053113E-15	1.931111E+1	-3.349427E-12	0.000000E+0
2.000000E-1	1.931198E+1	-3.666538E-12	0.000000E+0
4.000000E-1	1.931198E+1	-4.330785E-12	0.000000E+0
6.000000E-1	1.931255E+1	-5.732293E-12	0.000000E+0
8.000000E-1	1.931255E+1	-7.604239E-12	0.000000E+0
1.000000E+0	1.931308E+1	-9.258324E-12	0.000000E+0
1.200000E+0	1.931308E+1	-9.038443E-12	0.000000E+0
1.400000E+0	1.931383E+1	1.639694E-13	0.000000E+0
1.600000E+0	1.931383E+1	5.376374E-11	0.000000E+0
1.800000E+0	1.931466E+1	3.323169E-10	0.000000E+0
2.000000E+0	1.931466E+1	1.741104E-9	0.000000E+0
2.200000E+0	1.931459E+1	8.550847E-9	0.000000E+0
2.400000E+0	1.931459E+1	3.496515E-8	0.000000E+0
2.600000E+0	1.931496E+1	1.034692E-7	0.000000E+0
2.800000E+0	1.931496E+1	2.232686E-7	0.000000E+0
3.000000E+0	1.931540E+1	3.833717E-7	0.000000E+0
3.200000E+0	1.931540E+1	5.692743E-7	0.000000E+0
3.400000E+0	1.931540E+1	7.709352E-7	0.000000E+0
3.600000E+0	1.931666E+1	9.816672E-7	0.000000E+0
3.800000E+0	1.931666E+1	1.198437E-6	0.000000E+0
4.000000E+0	1.931664E+1	1.418841E-6	0.000000E+0
4.200000E+0	1.931664E+1	1.641226E-6	0.000000E+0
4.400000E+0	1.931753E+1	1.865027E-6	0.000000E+0
4.600000E+0	1.931753E+1	2.090047E-6	0.000000E+0
4.800000E+0	1.931822E+1	2.314563E-6	0.000000E+0
5.000000E+0	1.931822E+1	2.538887E-6	0.000000E+0
5.200000E+0	1.931866E+1	2.771213E-6	0.000000E+0
5.400000E+0	1.931866E+1	2.996376E-6	0.000000E+0
5.600000E+0	1.931960E+1	3.218817E-6	0.000000E+0
5.800000E+0	1.931960E+1	3.440070E-6	0.000000E+0
6.000000E+0	1.931989E+1	3.660333E-6	0.000000E+0
6.200000E+0	1.931989E+1	3.879132E-6	0.000000E+0
6.400000E+0	1.932058E+1	4.096903E-6	0.000000E+0
6.600000E+0	1.932058E+1	4.314002E-6	0.000000E+0
6.800000E+0	1.932028E+1	4.529229E-6	0.000000E+0
7.000000E+0	1.932028E+1	4.743504E-6	0.000000E+0
7.200000E+0	1.932140E+1	4.956303E-6	0.000000E+0
7.400000E+0	1.932140E+1	5.167861E-6	0.000000E+0
7.600000E+0	1.932140E+1	5.378534E-6	0.000000E+0
7.800000E+0	1.932198E+1	5.587868E-6	0.000000E+0
8.000000E+0	1.932198E+1	5.795724E-6	0.000000E+0
8.200000E+0	1.932258E+1	6.002806E-6	0.000000E+0
8.400000E+0	1.932258E+1	6.208531E-6	0.000000E+0
8.600000E+0	1.932316E+1	6.412831E-6	0.000000E+0
8.800000E+0	1.932316E+1	6.616037E-6	0.000000E+0
9.000000E+0	1.932409E+1	6.817620E-6	0.000000E+0
9.200000E+0	1.932409E+1	7.018537E-6	0.000000E+0
9.400000E+0	1.932371E+1	7.218001E-6	0.000000E+0
9.600000E+0	1.932371E+1	7.416033E-6	0.000000E+0
9.800000E+0	1.932469E+1	7.613585E-6	0.000000E+0
1.000000E+1	1.932469E+1	7.809601E-6	0.000000E+0
1.020000E+1	1.932519E+1	8.004711E-6	0.000000E+0
1.040000E+1	1.932519E+1	8.198879E-6	0.000000E+0
1.060000E+1	1.932579E+1	8.391643E-6	0.000000E+0
1.080000E+1	1.932579E+1	8.583067E-6	0.000000E+0
1.100000E+1	1.932579E+1	8.773730E-6	0.000000E+0
1.120000E+1	1.932605E+1	8.963788E-6	0.000000E+0
1.140000E+1	1.932605E+1	9.152617E-6	0.000000E+0
1.160000E+1	1.932652E+1	9.340023E-6	0.000000E+0
1.180000E+1	1.932652E+1	9.527041E-6	0.000000E+0
1.200000E+1	1.932713E+1	9.712842E-6	0.000000E+0
1.220000E+1	1.932713E+1	9.896832E-6	0.000000E+0
1.240000E+1	1.932784E+1	1.008083E-5	0.000000E+0
1.260000E+1	1.932784E+1	1.027078E-5	0.000000E+0
1.280000E+1	1.932801E+1	1.045413E-5	0.000000E+0
1.300000E+1	1.932801E+1	1.063544E-5	0.000000E+0
1.320000E+1	1.932864E+1	1.081522E-5	0.000000E+0
1.340000E+1	1.932864E+1	1.099474E-5	0.000000E+0
1.360000E+1	1.933022E+1	1.117328E-5	0.000000E+0
1.380000E+1	1.933022E+1	1.135077E-5	0.000000E+0
1.400000E+1	1.932978E+1	1.152749E-5	0.000000E+0
1.420000E+1	1.932978E+1	1.170302E-5	0.000000E+0
1.440000E+1	1.933056E+1	1.187788E-5	0.000000E+0
1.460000E+1	1.933056E+1	1.205227E-5	0.000000E+0
1.480000E+1	1.933056E+1	1.222529E-5	0.000000E+0
1.500000E+1	1.933078E+1	1.239784E-5	0.000000E+0
1.520000E+1	1.933078E+1	1.257019E-5	0.000000E+0
1.540000E+1	1.933138E+1	1.274075E-5	0.000000E+0
1.560000E+1	1.933138E+1	1.291092E-5	0.000000E+0
1.580000E+1	1.933131E+1	1.308048E-5	0.000000E+0
1.600000E+1	1.933131E+1	1.324958E-5	0.000000E+0
1.620000E+1	1.933261E+1	1.341785E-5	0.000000E+0
1.640000E+1	1.933261E+1	1.358498E-5	0.000000E+0
1.660000E+1	1.933276E+1	1.375163E-5	0.000000E+0
1.680000E+1	1.933276E+1	1.391735E-5	0.000000E+0
1.700000E+1	1.933368E+1	1.408201E-5	0.000000E+0
1.720000E+1	1.933368E+1	1.424626E-5	0.000000E+0
1.740000E+1	1.933498E+1	1.440998E-5	0.000000E+0
1.760000E+1	1.933498E+1	1.457342E-5	0.000000E+0
1.780000E+1	1.933445E+1	1.473597E-5	0.000000E+0
1.800000E+1	1.933445E+1	1.489771E-5	0.000000E+0
1.820000E+1	1.933486E+1	1.505880E-5	0.000000E+0
1.840000E+1	1.933486E+1	1.521981E-5	0.000000E+0
1.860000E+1	1.933486E+1	1.538005E-5	0.000000E+0
1.880000E+1	1.933587E+1	1.553888E-5	0.000000E+0
1.900000E+1	1.933587E+1	1.569719E-5	0.000000E+0
END