IV MEASUREMENT
:start
2017-02-24 23:52:54
:stop
2017-02-24 23:59:19
:device
M200Y_06_HPKTS_2_MOSFET
:tester
Ioannis
:atmosphere
Air
:environment
Probe Station
:Instruments
VI Kei6487,CV AgE4980A,GI NM,T Kei2700
:Comment
circular, nMOSFET, Ids vs Vgate, Vback=0.40032V,Vds=0.05V, Bef.irrad., precision meas. of Vback
 power lower < 1mW, probe station, wait. time 0 sec,after gluing
Annealing time [min]:
0@0
:temperature [C]
19.886601
:start,stop voltage [V] & number of points
-6.000000,16.000000,111
:Voltage increment and increment speed
1.000000,0.500000
:polarity and ramp mode
negative,0
:Current meter range
Auto
:Averaging (int,ext,NPLC,Median Rank)
3,5
3.000000
3
:legend
bias [V],T[C],Current[Amp],Guard Current[Amp]
BEGIN
-6.000000E+0	1.988873E+1	4.176292E-6	0.000000E+0
-5.800000E+0	1.988873E+1	4.176256E-6	0.000000E+0
-5.600000E+0	1.988856E+1	4.176080E-6	0.000000E+0
-5.400000E+0	1.988856E+1	4.175787E-6	0.000000E+0
-5.200000E+0	1.988856E+1	4.175645E-6	0.000000E+0
-5.000000E+0	1.988828E+1	4.175835E-6	0.000000E+0
-4.800000E+0	1.988828E+1	4.175374E-6	0.000000E+0
-4.600000E+0	1.988818E+1	4.175331E-6	0.000000E+0
-4.400000E+0	1.988818E+1	4.175348E-6	0.000000E+0
-4.200000E+0	1.988818E+1	4.175379E-6	0.000000E+0
-4.000000E+0	1.988814E+1	4.175467E-6	0.000000E+0
-3.800000E+0	1.988814E+1	4.175204E-6	0.000000E+0
-3.600000E+0	1.988814E+1	4.175212E-6	0.000000E+0
-3.400000E+0	1.988800E+1	4.174435E-6	0.000000E+0
-3.200000E+0	1.988800E+1	4.174249E-6	0.000000E+0
-3.000000E+0	1.988800E+1	4.174243E-6	0.000000E+0
-2.800000E+0	1.988829E+1	4.173901E-6	0.000000E+0
-2.600000E+0	1.988829E+1	4.173900E-6	0.000000E+0
-2.400000E+0	1.988781E+1	4.173533E-6	0.000000E+0
-2.200000E+0	1.988781E+1	4.173279E-6	0.000000E+0
-2.000000E+0	1.988781E+1	4.172652E-6	0.000000E+0
-1.800000E+0	1.988746E+1	4.172089E-6	0.000000E+0
-1.600000E+0	1.988746E+1	4.171076E-6	0.000000E+0
-1.400000E+0	1.988746E+1	4.170209E-6	0.000000E+0
-1.200000E+0	1.988761E+1	4.169008E-6	0.000000E+0
-1.000000E+0	1.988761E+1	4.167607E-6	0.000000E+0
-8.000000E-1	1.988714E+1	4.165111E-6	0.000000E+0
-6.000000E-1	1.988714E+1	4.161965E-6	0.000000E+0
-4.000000E-1	1.988714E+1	4.159324E-6	0.000000E+0
-2.000000E-1	1.988781E+1	4.161613E-6	0.000000E+0
3.053113E-15	1.988781E+1	4.174455E-6	0.000000E+0
2.000000E-1	1.988781E+1	4.210315E-6	0.000000E+0
4.000000E-1	1.988775E+1	4.279143E-6	0.000000E+0
6.000000E-1	1.988775E+1	4.387422E-6	0.000000E+0
8.000000E-1	1.988775E+1	4.534248E-6	0.000000E+0
1.000000E+0	1.988773E+1	4.711814E-6	0.000000E+0
1.200000E+0	1.988773E+1	4.911220E-6	0.000000E+0
1.400000E+0	1.988701E+1	5.124497E-6	0.000000E+0
1.600000E+0	1.988701E+1	5.347825E-6	0.000000E+0
1.800000E+0	1.988701E+1	5.577975E-6	0.000000E+0
2.000000E+0	1.988757E+1	5.809777E-6	0.000000E+0
2.200000E+0	1.988757E+1	6.044478E-6	0.000000E+0
2.400000E+0	1.988757E+1	6.281913E-6	0.000000E+0
2.600000E+0	1.988769E+1	6.520259E-6	0.000000E+0
2.800000E+0	1.988769E+1	6.757738E-6	0.000000E+0
3.000000E+0	1.988769E+1	6.995493E-6	0.000000E+0
3.200000E+0	1.988691E+1	7.231481E-6	0.000000E+0
3.400000E+0	1.988691E+1	7.467749E-6	0.000000E+0
3.600000E+0	1.988673E+1	7.701694E-6	0.000000E+0
3.800000E+0	1.988673E+1	7.935256E-6	0.000000E+0
4.000000E+0	1.988673E+1	8.167261E-6	0.000000E+0
4.200000E+0	1.988736E+1	8.397459E-6	0.000000E+0
4.400000E+0	1.988736E+1	8.628094E-6	0.000000E+0
4.600000E+0	1.988736E+1	8.855808E-6	0.000000E+0
4.800000E+0	1.988701E+1	9.082293E-6	0.000000E+0
5.000000E+0	1.988701E+1	9.307755E-6	0.000000E+0
5.200000E+0	1.988681E+1	9.540491E-6	0.000000E+0
5.400000E+0	1.988681E+1	9.765291E-6	0.000000E+0
5.600000E+0	1.988681E+1	9.987467E-6	0.000000E+0
5.800000E+0	1.988686E+1	1.020539E-5	0.000000E+0
6.000000E+0	1.988686E+1	1.042280E-5	0.000000E+0
6.200000E+0	1.988686E+1	1.063879E-5	0.000000E+0
6.400000E+0	1.988652E+1	1.085377E-5	0.000000E+0
6.600000E+0	1.988652E+1	1.106586E-5	0.000000E+0
6.800000E+0	1.988652E+1	1.127880E-5	0.000000E+0
7.000000E+0	1.988624E+1	1.149152E-5	0.000000E+0
7.200000E+0	1.988624E+1	1.170062E-5	0.000000E+0
7.400000E+0	1.988620E+1	1.190759E-5	0.000000E+0
7.600000E+0	1.988620E+1	1.211436E-5	0.000000E+0
7.800000E+0	1.988620E+1	1.231970E-5	0.000000E+0
8.000000E+0	1.988655E+1	1.252252E-5	0.000000E+0
8.200000E+0	1.988655E+1	1.272493E-5	0.000000E+0
8.400000E+0	1.988655E+1	1.292728E-5	0.000000E+0
8.600000E+0	1.988574E+1	1.312644E-5	0.000000E+0
8.800000E+0	1.988574E+1	1.332611E-5	0.000000E+0
9.000000E+0	1.988574E+1	1.352414E-5	0.000000E+0
9.200000E+0	1.988553E+1	1.372041E-5	0.000000E+0
9.400000E+0	1.988553E+1	1.391631E-5	0.000000E+0
9.600000E+0	1.988577E+1	1.411084E-5	0.000000E+0
9.800000E+0	1.988577E+1	1.430448E-5	0.000000E+0
1.000000E+1	1.988577E+1	1.449665E-5	0.000000E+0
1.020000E+1	1.988548E+1	1.468725E-5	0.000000E+0
1.040000E+1	1.988548E+1	1.487707E-5	0.000000E+0
1.060000E+1	1.988548E+1	1.506585E-5	0.000000E+0
1.080000E+1	1.988558E+1	1.525394E-5	0.000000E+0
1.100000E+1	1.988558E+1	1.544045E-5	0.000000E+0
1.120000E+1	1.988496E+1	1.562545E-5	0.000000E+0
1.140000E+1	1.988496E+1	1.581108E-5	0.000000E+0
1.160000E+1	1.988496E+1	1.599457E-5	0.000000E+0
1.180000E+1	1.988488E+1	1.617736E-5	0.000000E+0
1.200000E+1	1.988488E+1	1.635927E-5	0.000000E+0
1.220000E+1	1.988488E+1	1.654017E-5	0.000000E+0
1.240000E+1	1.988478E+1	1.672104E-5	0.000000E+0
1.260000E+1	1.988478E+1	1.690669E-5	0.000000E+0
1.280000E+1	1.988478E+1	1.708501E-5	0.000000E+0
1.300000E+1	1.988466E+1	1.726359E-5	0.000000E+0
1.320000E+1	1.988466E+1	1.743922E-5	0.000000E+0
1.340000E+1	1.988441E+1	1.761448E-5	0.000000E+0
1.360000E+1	1.988441E+1	1.779138E-5	0.000000E+0
1.380000E+1	1.988441E+1	1.796735E-5	0.000000E+0
1.400000E+1	1.988492E+1	1.813657E-5	0.000000E+0
1.420000E+1	1.988492E+1	1.830655E-5	0.000000E+0
1.440000E+1	1.988492E+1	1.847955E-5	0.000000E+0
1.460000E+1	1.988471E+1	1.864950E-5	0.000000E+0
1.480000E+1	1.988471E+1	1.881824E-5	0.000000E+0
1.500000E+1	1.988471E+1	1.898673E-5	0.000000E+0
1.520000E+1	1.988429E+1	1.915704E-5	0.000000E+0
1.540000E+1	1.988429E+1	1.932397E-5	0.000000E+0
1.560000E+1	1.988448E+1	1.948931E-5	0.000000E+0
1.580000E+1	1.988448E+1	1.965498E-5	0.000000E+0
1.600000E+1	1.988448E+1	1.981943E-5	0.000000E+0
END