IV MEASUREMENT
:start
2017-02-24 23:04:28
:stop
2017-02-24 23:10:55
:device
M200Y_06_HPKTS_2_MOSFET
:tester
Ioannis
:atmosphere
Air
:environment
Probe Station
:Instruments
VI Kei6487,CV AgE4980A,GI NM,T Kei2700
:Comment
circular, nMOSFET, Ids vs Vgate, Vback=-19.9996V,Vds=0.05V, Bef.irrad., precision meas. of Vback
 power lower < 1mW, probe station, wait. time 0 sec,after gluing
Annealing time [min]:
0@0
:temperature [C]
19.928364
:start,stop voltage [V] & number of points
-6.000000,16.000000,111
:Voltage increment and increment speed
1.000000,0.500000
:polarity and ramp mode
negative,0
:Current meter range
Auto
:Averaging (int,ext,NPLC,Median Rank)
3,5
3.000000
3
:legend
bias [V],T[C],Current[Amp],Guard Current[Amp]
BEGIN
-6.000000E+0	1.993104E+1	-5.060806E-11	0.000000E+0
-5.800000E+0	1.993104E+1	-5.101544E-11	0.000000E+0
-5.600000E+0	1.993025E+1	-5.097033E-11	0.000000E+0
-5.400000E+0	1.993025E+1	-5.094319E-11	0.000000E+0
-5.200000E+0	1.993025E+1	-5.080145E-11	0.000000E+0
-5.000000E+0	1.993053E+1	-5.083413E-11	0.000000E+0
-4.800000E+0	1.993053E+1	-5.077783E-11	0.000000E+0
-4.600000E+0	1.993042E+1	-5.085598E-11	0.000000E+0
-4.400000E+0	1.993042E+1	-5.087196E-11	0.000000E+0
-4.200000E+0	1.993042E+1	-5.070191E-11	0.000000E+0
-4.000000E+0	1.993035E+1	-5.092338E-11	0.000000E+0
-3.800000E+0	1.993035E+1	-5.090026E-11	0.000000E+0
-3.600000E+0	1.993035E+1	-5.080496E-11	0.000000E+0
-3.400000E+0	1.993012E+1	-5.087463E-11	0.000000E+0
-3.200000E+0	1.993012E+1	-5.079143E-11	0.000000E+0
-3.000000E+0	1.993012E+1	-5.070784E-11	0.000000E+0
-2.800000E+0	1.993028E+1	-5.053474E-11	0.000000E+0
-2.600000E+0	1.993028E+1	-5.057998E-11	0.000000E+0
-2.400000E+0	1.992942E+1	-5.060837E-11	0.000000E+0
-2.200000E+0	1.992942E+1	-5.053625E-11	0.000000E+0
-2.000000E+0	1.992942E+1	-5.055684E-11	0.000000E+0
-1.800000E+0	1.992951E+1	-5.051632E-11	0.000000E+0
-1.600000E+0	1.992951E+1	-5.050627E-11	0.000000E+0
-1.400000E+0	1.992951E+1	-5.042497E-11	0.000000E+0
-1.200000E+0	1.992987E+1	-5.043868E-11	0.000000E+0
-1.000000E+0	1.992987E+1	-5.034656E-11	0.000000E+0
-8.000000E-1	1.992990E+1	-5.032567E-11	0.000000E+0
-6.000000E-1	1.992990E+1	-5.033754E-11	0.000000E+0
-4.000000E-1	1.992990E+1	-5.036510E-11	0.000000E+0
-2.000000E-1	1.992947E+1	-5.022246E-11	0.000000E+0
3.053113E-15	1.992947E+1	-5.017277E-11	0.000000E+0
2.000000E-1	1.992947E+1	-5.012305E-11	0.000000E+0
4.000000E-1	1.992902E+1	-5.010436E-11	0.000000E+0
6.000000E-1	1.992902E+1	-5.006069E-11	0.000000E+0
8.000000E-1	1.992902E+1	-5.009395E-11	0.000000E+0
1.000000E+0	1.992941E+1	-4.992065E-11	0.000000E+0
1.200000E+0	1.992941E+1	-4.996901E-11	0.000000E+0
1.400000E+0	1.993019E+1	-4.999160E-11	0.000000E+0
1.600000E+0	1.993019E+1	-4.967278E-11	0.000000E+0
1.800000E+0	1.993019E+1	-4.961999E-11	0.000000E+0
2.000000E+0	1.992929E+1	-4.959590E-11	0.000000E+0
2.200000E+0	1.992929E+1	-4.963286E-11	0.000000E+0
2.400000E+0	1.992929E+1	-4.954176E-11	0.000000E+0
2.600000E+0	1.992918E+1	-4.937909E-11	0.000000E+0
2.800000E+0	1.992918E+1	-4.928332E-11	0.000000E+0
3.000000E+0	1.992948E+1	-4.923423E-11	0.000000E+0
3.200000E+0	1.992948E+1	-4.924295E-11	0.000000E+0
3.400000E+0	1.992948E+1	-4.908687E-11	0.000000E+0
3.600000E+0	1.992969E+1	-4.895303E-11	0.000000E+0
3.800000E+0	1.992969E+1	-4.890267E-11	0.000000E+0
4.000000E+0	1.992969E+1	-4.876800E-11	0.000000E+0
4.200000E+0	1.992915E+1	-4.858550E-11	0.000000E+0
4.400000E+0	1.992915E+1	-4.847636E-11	0.000000E+0
4.600000E+0	1.992915E+1	-4.842960E-11	0.000000E+0
4.800000E+0	1.992884E+1	-4.842524E-11	0.000000E+0
5.000000E+0	1.992884E+1	-4.819994E-11	0.000000E+0
5.200000E+0	1.992875E+1	-4.791886E-11	0.000000E+0
5.400000E+0	1.992875E+1	-4.755583E-11	0.000000E+0
5.600000E+0	1.992875E+1	-4.732210E-11	0.000000E+0
5.800000E+0	1.992836E+1	-2.135216E-11	0.000000E+0
6.000000E+0	1.992836E+1	6.964369E-9	0.000000E+0
6.200000E+0	1.992836E+1	9.018474E-8	0.000000E+0
6.400000E+0	1.992857E+1	2.500539E-7	0.000000E+0
6.600000E+0	1.992857E+1	4.419862E-7	0.000000E+0
6.800000E+0	1.992791E+1	6.447779E-7	0.000000E+0
7.000000E+0	1.992791E+1	8.529056E-7	0.000000E+0
7.200000E+0	1.992791E+1	1.063391E-6	0.000000E+0
7.400000E+0	1.992845E+1	1.275259E-6	0.000000E+0
7.600000E+0	1.992845E+1	1.487791E-6	0.000000E+0
7.800000E+0	1.992845E+1	1.700060E-6	0.000000E+0
8.000000E+0	1.992781E+1	1.912424E-6	0.000000E+0
8.200000E+0	1.992781E+1	2.124896E-6	0.000000E+0
8.400000E+0	1.992754E+1	2.335853E-6	0.000000E+0
8.600000E+0	1.992754E+1	2.545868E-6	0.000000E+0
8.800000E+0	1.992754E+1	2.755308E-6	0.000000E+0
9.000000E+0	1.992723E+1	2.963221E-6	0.000000E+0
9.200000E+0	1.992723E+1	3.170153E-6	0.000000E+0
9.400000E+0	1.992723E+1	3.376140E-6	0.000000E+0
9.600000E+0	1.992710E+1	3.581229E-6	0.000000E+0
9.800000E+0	1.992710E+1	3.785466E-6	0.000000E+0
1.000000E+1	1.992630E+1	3.988106E-6	0.000000E+0
1.020000E+1	1.992630E+1	4.189786E-6	0.000000E+0
1.040000E+1	1.992630E+1	4.390151E-6	0.000000E+0
1.060000E+1	1.992631E+1	4.589739E-6	0.000000E+0
1.080000E+1	1.992631E+1	4.788169E-6	0.000000E+0
1.100000E+1	1.992631E+1	4.985628E-6	0.000000E+0
1.120000E+1	1.992657E+1	5.181849E-6	0.000000E+0
1.140000E+1	1.992657E+1	5.377945E-6	0.000000E+0
1.160000E+1	1.992657E+1	5.571429E-6	0.000000E+0
1.180000E+1	1.992689E+1	5.764304E-6	0.000000E+0
1.200000E+1	1.992689E+1	5.956306E-6	0.000000E+0
1.220000E+1	1.992624E+1	6.146877E-6	0.000000E+0
1.240000E+1	1.992624E+1	6.336750E-6	0.000000E+0
1.260000E+1	1.992624E+1	6.532745E-6	0.000000E+0
1.280000E+1	1.992627E+1	6.722246E-6	0.000000E+0
1.300000E+1	1.992627E+1	6.909390E-6	0.000000E+0
1.320000E+1	1.992627E+1	7.095190E-6	0.000000E+0
1.340000E+1	1.992590E+1	7.281317E-6	0.000000E+0
1.360000E+1	1.992590E+1	7.465223E-6	0.000000E+0
1.380000E+1	1.992648E+1	7.647874E-6	0.000000E+0
1.400000E+1	1.992648E+1	7.830020E-6	0.000000E+0
1.420000E+1	1.992648E+1	8.011223E-6	0.000000E+0
1.440000E+1	1.992554E+1	8.191899E-6	0.000000E+0
1.460000E+1	1.992554E+1	8.371760E-6	0.000000E+0
1.480000E+1	1.992554E+1	8.549599E-6	0.000000E+0
1.500000E+1	1.992580E+1	8.727520E-6	0.000000E+0
1.520000E+1	1.992580E+1	8.905140E-6	0.000000E+0
1.540000E+1	1.992580E+1	9.081097E-6	0.000000E+0
1.560000E+1	1.992506E+1	9.257230E-6	0.000000E+0
1.580000E+1	1.992506E+1	9.432185E-6	0.000000E+0
1.600000E+1	1.992542E+1	9.605192E-6	0.000000E+0
END