IV MEASUREMENT
:start
2017-02-24 22:45:36
:stop
2017-02-24 22:52:03
:device
M200Y_06_HPKTS_2_MOSFET
:tester
Ioannis
:atmosphere
Air
:environment
Probe Station
:Instruments
VI Kei6487,CV AgE4980A,GI NM,T Kei2700
:Comment
circular, nMOSFET, Ids vs Vgate, Vback=-11.9970V,Vds=0.05V, Bef.irrad., precision meas. of Vback
 power lower < 1mW, probe station, wait. time 0 sec,after gluing
Annealing time [min]:
0@0
:temperature [C]
19.951196
:start,stop voltage [V] & number of points
-6.000000,16.000000,111
:Voltage increment and increment speed
1.000000,0.500000
:polarity and ramp mode
negative,0
:Current meter range
Auto
:Averaging (int,ext,NPLC,Median Rank)
3,5
3.000000
3
:legend
bias [V],T[C],Current[Amp],Guard Current[Amp]
BEGIN
-6.000000E+0	1.995511E+1	-4.642721E-11	0.000000E+0
-5.800000E+0	1.995511E+1	-4.730619E-11	0.000000E+0
-5.600000E+0	1.995463E+1	-4.797360E-11	0.000000E+0
-5.400000E+0	1.995463E+1	-4.862248E-11	0.000000E+0
-5.200000E+0	1.995463E+1	-4.885444E-11	0.000000E+0
-5.000000E+0	1.995391E+1	-4.894860E-11	0.000000E+0
-4.800000E+0	1.995391E+1	-4.897457E-11	0.000000E+0
-4.600000E+0	1.995413E+1	-4.911773E-11	0.000000E+0
-4.400000E+0	1.995413E+1	-4.913200E-11	0.000000E+0
-4.200000E+0	1.995413E+1	-4.926116E-11	0.000000E+0
-4.000000E+0	1.995346E+1	-4.934263E-11	0.000000E+0
-3.800000E+0	1.995346E+1	-4.930505E-11	0.000000E+0
-3.600000E+0	1.995346E+1	-4.937940E-11	0.000000E+0
-3.400000E+0	1.995336E+1	-4.937990E-11	0.000000E+0
-3.200000E+0	1.995336E+1	-4.941493E-11	0.000000E+0
-3.000000E+0	1.995336E+1	-4.940640E-11	0.000000E+0
-2.800000E+0	1.995351E+1	-4.943775E-11	0.000000E+0
-2.600000E+0	1.995351E+1	-4.942361E-11	0.000000E+0
-2.400000E+0	1.995311E+1	-4.951990E-11	0.000000E+0
-2.200000E+0	1.995311E+1	-4.937531E-11	0.000000E+0
-2.000000E+0	1.995311E+1	-4.939887E-11	0.000000E+0
-1.800000E+0	1.995329E+1	-4.941213E-11	0.000000E+0
-1.600000E+0	1.995329E+1	-4.944193E-11	0.000000E+0
-1.400000E+0	1.995329E+1	-4.950003E-11	0.000000E+0
-1.200000E+0	1.995268E+1	-4.945882E-11	0.000000E+0
-1.000000E+0	1.995268E+1	-4.938724E-11	0.000000E+0
-8.000000E-1	1.995348E+1	-4.939697E-11	0.000000E+0
-6.000000E-1	1.995348E+1	-4.939788E-11	0.000000E+0
-4.000000E-1	1.995348E+1	-4.925400E-11	0.000000E+0
-2.000000E-1	1.995338E+1	-4.931345E-11	0.000000E+0
3.053113E-15	1.995338E+1	-4.930868E-11	0.000000E+0
2.000000E-1	1.995338E+1	-4.925508E-11	0.000000E+0
4.000000E-1	1.995296E+1	-4.920513E-11	0.000000E+0
6.000000E-1	1.995296E+1	-4.918100E-11	0.000000E+0
8.000000E-1	1.995296E+1	-4.921300E-11	0.000000E+0
1.000000E+0	1.995253E+1	-4.912758E-11	0.000000E+0
1.200000E+0	1.995253E+1	-4.910807E-11	0.000000E+0
1.400000E+0	1.995285E+1	-4.905885E-11	0.000000E+0
1.600000E+0	1.995285E+1	-4.899456E-11	0.000000E+0
1.800000E+0	1.995285E+1	-4.896593E-11	0.000000E+0
2.000000E+0	1.995213E+1	-4.896833E-11	0.000000E+0
2.200000E+0	1.995213E+1	-4.889199E-11	0.000000E+0
2.400000E+0	1.995213E+1	-4.883708E-11	0.000000E+0
2.600000E+0	1.995236E+1	-4.873596E-11	0.000000E+0
2.800000E+0	1.995236E+1	-4.866037E-11	0.000000E+0
3.000000E+0	1.995179E+1	-4.860111E-11	0.000000E+0
3.200000E+0	1.995179E+1	-4.852859E-11	0.000000E+0
3.400000E+0	1.995179E+1	-4.845252E-11	0.000000E+0
3.600000E+0	1.995212E+1	-4.837237E-11	0.000000E+0
3.800000E+0	1.995212E+1	-4.826411E-11	0.000000E+0
4.000000E+0	1.995212E+1	-4.817495E-11	0.000000E+0
4.200000E+0	1.995152E+1	-4.807041E-11	0.000000E+0
4.400000E+0	1.995152E+1	-4.797959E-11	0.000000E+0
4.600000E+0	1.995152E+1	-4.777928E-11	0.000000E+0
4.800000E+0	1.995121E+1	-4.768527E-11	0.000000E+0
5.000000E+0	1.995121E+1	-4.757203E-11	0.000000E+0
5.200000E+0	1.995110E+1	-4.735906E-11	0.000000E+0
5.400000E+0	1.995110E+1	-4.702190E-11	0.000000E+0
5.600000E+0	1.995110E+1	-1.172032E-11	0.000000E+0
5.800000E+0	1.995132E+1	8.326752E-9	0.000000E+0
6.000000E+0	1.995132E+1	9.583223E-8	0.000000E+0
6.200000E+0	1.995114E+1	2.579104E-7	0.000000E+0
6.400000E+0	1.995114E+1	4.506936E-7	0.000000E+0
6.600000E+0	1.995114E+1	6.549758E-7	0.000000E+0
6.800000E+0	1.995083E+1	8.639870E-7	0.000000E+0
7.000000E+0	1.995083E+1	1.075959E-6	0.000000E+0
7.200000E+0	1.995083E+1	1.288699E-6	0.000000E+0
7.400000E+0	1.995037E+1	1.501888E-6	0.000000E+0
7.600000E+0	1.995037E+1	1.715665E-6	0.000000E+0
7.800000E+0	1.995037E+1	1.928494E-6	0.000000E+0
8.000000E+0	1.995072E+1	2.141665E-6	0.000000E+0
8.200000E+0	1.995072E+1	2.353851E-6	0.000000E+0
8.400000E+0	1.995012E+1	2.564888E-6	0.000000E+0
8.600000E+0	1.995012E+1	2.774803E-6	0.000000E+0
8.800000E+0	1.995012E+1	2.984576E-6	0.000000E+0
9.000000E+0	1.994995E+1	3.192252E-6	0.000000E+0
9.200000E+0	1.994995E+1	3.398620E-6	0.000000E+0
9.400000E+0	1.994995E+1	3.604078E-6	0.000000E+0
9.600000E+0	1.994917E+1	3.808771E-6	0.000000E+0
9.800000E+0	1.994917E+1	4.012749E-6	0.000000E+0
1.000000E+1	1.994907E+1	4.214819E-6	0.000000E+0
1.020000E+1	1.994907E+1	4.416252E-6	0.000000E+0
1.040000E+1	1.994907E+1	4.616165E-6	0.000000E+0
1.060000E+1	1.994873E+1	4.815158E-6	0.000000E+0
1.080000E+1	1.994873E+1	5.013143E-6	0.000000E+0
1.100000E+1	1.994873E+1	5.210317E-6	0.000000E+0
1.120000E+1	1.994895E+1	5.406395E-6	0.000000E+0
1.140000E+1	1.994895E+1	5.600834E-6	0.000000E+0
1.160000E+1	1.994895E+1	5.794790E-6	0.000000E+0
1.180000E+1	1.994884E+1	5.988103E-6	0.000000E+0
1.200000E+1	1.994884E+1	6.179993E-6	0.000000E+0
1.220000E+1	1.994858E+1	6.369854E-6	0.000000E+0
1.240000E+1	1.994858E+1	6.559316E-6	0.000000E+0
1.260000E+1	1.994858E+1	6.754803E-6	0.000000E+0
1.280000E+1	1.994874E+1	6.943857E-6	0.000000E+0
1.300000E+1	1.994874E+1	7.129921E-6	0.000000E+0
1.320000E+1	1.994874E+1	7.314998E-6	0.000000E+0
1.340000E+1	1.994853E+1	7.500497E-6	0.000000E+0
1.360000E+1	1.994853E+1	7.684837E-6	0.000000E+0
1.380000E+1	1.994810E+1	7.866788E-6	0.000000E+0
1.400000E+1	1.994810E+1	8.049076E-6	0.000000E+0
1.420000E+1	1.994810E+1	8.231329E-6	0.000000E+0
1.440000E+1	1.994799E+1	8.412454E-6	0.000000E+0
1.460000E+1	1.994799E+1	8.591851E-6	0.000000E+0
1.480000E+1	1.994799E+1	8.769162E-6	0.000000E+0
1.500000E+1	1.994811E+1	8.946197E-6	0.000000E+0
1.520000E+1	1.994811E+1	9.123391E-6	0.000000E+0
1.540000E+1	1.994811E+1	9.298992E-6	0.000000E+0
1.560000E+1	1.994698E+1	9.475099E-6	0.000000E+0
1.580000E+1	1.994698E+1	9.650308E-6	0.000000E+0
1.600000E+1	1.994703E+1	9.823717E-6	0.000000E+0
END