IV MEASUREMENT
:start
2017-02-24 23:37:35
:stop
2017-02-24 23:44:01
:device
M200Y_06_HPKTS_2_MOSFET
:tester
Ioannis
:atmosphere
Air
:environment
Probe Station
:Instruments
VI Kei6487,CV AgE4980A,GI NM,T Kei2700
:Comment
circular, nMOSFET, Ids vs Vgate, Vback=0.20017V,Vds=0.05V, Bef.irrad., precision meas. of Vback
 power lower < 1mW, probe station, wait. time 0 sec,after gluing
Annealing time [min]:
0@0
:temperature [C]
19.899692
:start,stop voltage [V] & number of points
-6.000000,16.000000,111
:Voltage increment and increment speed
1.000000,0.500000
:polarity and ramp mode
negative,0
:Current meter range
Auto
:Averaging (int,ext,NPLC,Median Rank)
3,5
3.000000
3
:legend
bias [V],T[C],Current[Amp],Guard Current[Amp]
BEGIN
-6.000000E+0	1.990237E+1	7.782190E-9	0.000000E+0
-5.800000E+0	1.990237E+1	7.782006E-9	0.000000E+0
-5.600000E+0	1.990234E+1	7.781542E-9	0.000000E+0
-5.400000E+0	1.990234E+1	7.781953E-9	0.000000E+0
-5.200000E+0	1.990234E+1	7.782186E-9	0.000000E+0
-5.000000E+0	1.990213E+1	7.781919E-9	0.000000E+0
-4.800000E+0	1.990213E+1	7.781817E-9	0.000000E+0
-4.600000E+0	1.990154E+1	7.781756E-9	0.000000E+0
-4.400000E+0	1.990154E+1	7.781919E-9	0.000000E+0
-4.200000E+0	1.990154E+1	7.781693E-9	0.000000E+0
-4.000000E+0	1.990170E+1	7.781764E-9	0.000000E+0
-3.800000E+0	1.990170E+1	7.781804E-9	0.000000E+0
-3.600000E+0	1.990170E+1	7.782171E-9	0.000000E+0
-3.400000E+0	1.990104E+1	7.782786E-9	0.000000E+0
-3.200000E+0	1.990104E+1	7.782331E-9	0.000000E+0
-3.000000E+0	1.990104E+1	7.782503E-9	0.000000E+0
-2.800000E+0	1.990104E+1	7.782334E-9	0.000000E+0
-2.600000E+0	1.990104E+1	7.782771E-9	0.000000E+0
-2.400000E+0	1.990096E+1	7.783545E-9	0.000000E+0
-2.200000E+0	1.990096E+1	7.783598E-9	0.000000E+0
-2.000000E+0	1.990096E+1	7.785012E-9	0.000000E+0
-1.800000E+0	1.990091E+1	7.787010E-9	0.000000E+0
-1.600000E+0	1.990091E+1	7.789466E-9	0.000000E+0
-1.400000E+0	1.990091E+1	7.793939E-9	0.000000E+0
-1.200000E+0	1.990084E+1	7.802025E-9	0.000000E+0
-1.000000E+0	1.990084E+1	7.814120E-9	0.000000E+0
-8.000000E-1	1.990022E+1	7.830459E-9	0.000000E+0
-6.000000E-1	1.990022E+1	7.850555E-9	0.000000E+0
-4.000000E-1	1.990022E+1	7.877575E-9	0.000000E+0
-2.000000E-1	1.990109E+1	7.927643E-9	0.000000E+0
3.053113E-15	1.990109E+1	8.007063E-9	0.000000E+0
2.000000E-1	1.990109E+1	8.205695E-9	0.000000E+0
4.000000E-1	1.990096E+1	8.635621E-9	0.000000E+0
6.000000E-1	1.990096E+1	9.601134E-9	0.000000E+0
8.000000E-1	1.990096E+1	1.189448E-8	0.000000E+0
1.000000E+0	1.990155E+1	1.810789E-8	0.000000E+0
1.200000E+0	1.990155E+1	3.650723E-8	0.000000E+0
1.400000E+0	1.990069E+1	8.317741E-8	0.000000E+0
1.600000E+0	1.990069E+1	1.732823E-7	0.000000E+0
1.800000E+0	1.990069E+1	3.081883E-7	0.000000E+0
2.000000E+0	1.990059E+1	4.767097E-7	0.000000E+0
2.200000E+0	1.990059E+1	6.688269E-7	0.000000E+0
2.400000E+0	1.990059E+1	8.759121E-7	0.000000E+0
2.600000E+0	1.990037E+1	1.091488E-6	0.000000E+0
2.800000E+0	1.990037E+1	1.313700E-6	0.000000E+0
3.000000E+0	1.990028E+1	1.539410E-6	0.000000E+0
3.200000E+0	1.990028E+1	1.767472E-6	0.000000E+0
3.400000E+0	1.990028E+1	1.997112E-6	0.000000E+0
3.600000E+0	1.990033E+1	2.228049E-6	0.000000E+0
3.800000E+0	1.990033E+1	2.458912E-6	0.000000E+0
4.000000E+0	1.990033E+1	2.688186E-6	0.000000E+0
4.200000E+0	1.990060E+1	2.917170E-6	0.000000E+0
4.400000E+0	1.990060E+1	3.145433E-6	0.000000E+0
4.600000E+0	1.990001E+1	3.372537E-6	0.000000E+0
4.800000E+0	1.990001E+1	3.599217E-6	0.000000E+0
5.000000E+0	1.990001E+1	3.824925E-6	0.000000E+0
5.200000E+0	1.990000E+1	4.057797E-6	0.000000E+0
5.400000E+0	1.990000E+1	4.283287E-6	0.000000E+0
5.600000E+0	1.990000E+1	4.504430E-6	0.000000E+0
5.800000E+0	1.990015E+1	4.725935E-6	0.000000E+0
6.000000E+0	1.990015E+1	4.945363E-6	0.000000E+0
6.200000E+0	1.990015E+1	5.162587E-6	0.000000E+0
6.400000E+0	1.990053E+1	5.378167E-6	0.000000E+0
6.600000E+0	1.990053E+1	5.592785E-6	0.000000E+0
6.800000E+0	1.989967E+1	5.807148E-6	0.000000E+0
7.000000E+0	1.989967E+1	6.021049E-6	0.000000E+0
7.200000E+0	1.989967E+1	6.231448E-6	0.000000E+0
7.400000E+0	1.989947E+1	6.440231E-6	0.000000E+0
7.600000E+0	1.989947E+1	6.649031E-6	0.000000E+0
7.800000E+0	1.989947E+1	6.855902E-6	0.000000E+0
8.000000E+0	1.989959E+1	7.061287E-6	0.000000E+0
8.200000E+0	1.989959E+1	7.267681E-6	0.000000E+0
8.400000E+0	1.989870E+1	7.471669E-6	0.000000E+0
8.600000E+0	1.989870E+1	7.671983E-6	0.000000E+0
8.800000E+0	1.989870E+1	7.872102E-6	0.000000E+0
9.000000E+0	1.989879E+1	8.071803E-6	0.000000E+0
9.200000E+0	1.989879E+1	8.270730E-6	0.000000E+0
9.400000E+0	1.989879E+1	8.468219E-6	0.000000E+0
9.600000E+0	1.989861E+1	8.665456E-6	0.000000E+0
9.800000E+0	1.989861E+1	8.861374E-6	0.000000E+0
1.000000E+1	1.989861E+1	9.054562E-6	0.000000E+0
1.020000E+1	1.989859E+1	9.248144E-6	0.000000E+0
1.040000E+1	1.989859E+1	9.439510E-6	0.000000E+0
1.060000E+1	1.989840E+1	9.629546E-6	0.000000E+0
1.080000E+1	1.989840E+1	9.820104E-6	0.000000E+0
1.100000E+1	1.989840E+1	1.000849E-5	0.000000E+0
1.120000E+1	1.989861E+1	1.019639E-5	0.000000E+0
1.140000E+1	1.989861E+1	1.038371E-5	0.000000E+0
1.160000E+1	1.989861E+1	1.056946E-5	0.000000E+0
1.180000E+1	1.989800E+1	1.075545E-5	0.000000E+0
1.200000E+1	1.989800E+1	1.093761E-5	0.000000E+0
1.220000E+1	1.989775E+1	1.111987E-5	0.000000E+0
1.240000E+1	1.989775E+1	1.130154E-5	0.000000E+0
1.260000E+1	1.989775E+1	1.149009E-5	0.000000E+0
1.280000E+1	1.989713E+1	1.167232E-5	0.000000E+0
1.300000E+1	1.989713E+1	1.185056E-5	0.000000E+0
1.320000E+1	1.989713E+1	1.203022E-5	0.000000E+0
1.340000E+1	1.989724E+1	1.220991E-5	0.000000E+0
1.360000E+1	1.989724E+1	1.238506E-5	0.000000E+0
1.380000E+1	1.989724E+1	1.256013E-5	0.000000E+0
1.400000E+1	1.989696E+1	1.273517E-5	0.000000E+0
1.420000E+1	1.989696E+1	1.290827E-5	0.000000E+0
1.440000E+1	1.989636E+1	1.308096E-5	0.000000E+0
1.460000E+1	1.989636E+1	1.325345E-5	0.000000E+0
1.480000E+1	1.989636E+1	1.342443E-5	0.000000E+0
1.500000E+1	1.989686E+1	1.359624E-5	0.000000E+0
1.520000E+1	1.989686E+1	1.376495E-5	0.000000E+0
1.540000E+1	1.989686E+1	1.393518E-5	0.000000E+0
1.560000E+1	1.989652E+1	1.410416E-5	0.000000E+0
1.580000E+1	1.989652E+1	1.427053E-5	0.000000E+0
1.600000E+1	1.989652E+1	1.443848E-5	0.000000E+0
END