IV MEASUREMENT
:start
2017-02-24 23:13:33
:stop
2017-02-24 23:19:59
:device
M200Y_06_HPKTS_2_MOSFET
:tester
Ioannis
:atmosphere
Air
:environment
Probe Station
:Instruments
VI Kei6487,CV AgE4980A,GI NM,T Kei2700
:Comment
circular, nMOSFET, Ids vs Vgate, Vback=-24.956V,Vds=0.05V, Bef.irrad., precision meas. of Vback
 power lower < 1mW, probe station, wait. time 0 sec,after gluing
Annealing time [min]:
0@0
:temperature [C]
19.919781
:start,stop voltage [V] & number of points
-6.000000,16.000000,111
:Voltage increment and increment speed
1.000000,0.500000
:polarity and ramp mode
negative,0
:Current meter range
Auto
:Averaging (int,ext,NPLC,Median Rank)
3,5
3.000000
3
:legend
bias [V],T[C],Current[Amp],Guard Current[Amp]
BEGIN
-6.000000E+0	1.992226E+1	-5.170481E-11	0.000000E+0
-5.800000E+0	1.992226E+1	-5.165884E-11	0.000000E+0
-5.600000E+0	1.992139E+1	-5.158638E-11	0.000000E+0
-5.400000E+0	1.992139E+1	-5.156454E-11	0.000000E+0
-5.200000E+0	1.992139E+1	-5.157426E-11	0.000000E+0
-5.000000E+0	1.992157E+1	-5.155171E-11	0.000000E+0
-4.800000E+0	1.992157E+1	-5.151762E-11	0.000000E+0
-4.600000E+0	1.992218E+1	-5.143941E-11	0.000000E+0
-4.400000E+0	1.992218E+1	-5.149552E-11	0.000000E+0
-4.200000E+0	1.992218E+1	-5.154357E-11	0.000000E+0
-4.000000E+0	1.992138E+1	-5.141355E-11	0.000000E+0
-3.800000E+0	1.992138E+1	-5.139512E-11	0.000000E+0
-3.600000E+0	1.992138E+1	-5.137039E-11	0.000000E+0
-3.400000E+0	1.992208E+1	-5.137304E-11	0.000000E+0
-3.200000E+0	1.992208E+1	-5.129847E-11	0.000000E+0
-3.000000E+0	1.992208E+1	-5.135489E-11	0.000000E+0
-2.800000E+0	1.992192E+1	-5.133976E-11	0.000000E+0
-2.600000E+0	1.992192E+1	-5.125336E-11	0.000000E+0
-2.400000E+0	1.992095E+1	-5.113947E-11	0.000000E+0
-2.200000E+0	1.992095E+1	-5.111275E-11	0.000000E+0
-2.000000E+0	1.992095E+1	-5.113090E-11	0.000000E+0
-1.800000E+0	1.992159E+1	-5.111228E-11	0.000000E+0
-1.600000E+0	1.992159E+1	-5.110832E-11	0.000000E+0
-1.400000E+0	1.992159E+1	-5.104500E-11	0.000000E+0
-1.200000E+0	1.992077E+1	-5.099900E-11	0.000000E+0
-1.000000E+0	1.992077E+1	-5.097788E-11	0.000000E+0
-8.000000E-1	1.992085E+1	-5.101280E-11	0.000000E+0
-6.000000E-1	1.992085E+1	-5.084566E-11	0.000000E+0
-4.000000E-1	1.992085E+1	-5.075257E-11	0.000000E+0
-2.000000E-1	1.992051E+1	-5.083460E-11	0.000000E+0
3.053113E-15	1.992051E+1	-5.074063E-11	0.000000E+0
2.000000E-1	1.992051E+1	-5.061575E-11	0.000000E+0
4.000000E-1	1.992141E+1	-5.071910E-11	0.000000E+0
6.000000E-1	1.992141E+1	-5.049555E-11	0.000000E+0
8.000000E-1	1.992141E+1	-5.048446E-11	0.000000E+0
1.000000E+0	1.992075E+1	-5.046117E-11	0.000000E+0
1.200000E+0	1.992075E+1	-5.036756E-11	0.000000E+0
1.400000E+0	1.992075E+1	-5.029342E-11	0.000000E+0
1.600000E+0	1.992075E+1	-5.023883E-11	0.000000E+0
1.800000E+0	1.992075E+1	-5.027175E-11	0.000000E+0
2.000000E+0	1.992112E+1	-5.009312E-11	0.000000E+0
2.200000E+0	1.992112E+1	-4.996311E-11	0.000000E+0
2.400000E+0	1.992112E+1	-4.990327E-11	0.000000E+0
2.600000E+0	1.992019E+1	-4.986882E-11	0.000000E+0
2.800000E+0	1.992019E+1	-4.977191E-11	0.000000E+0
3.000000E+0	1.992139E+1	-4.970051E-11	0.000000E+0
3.200000E+0	1.992139E+1	-4.955221E-11	0.000000E+0
3.400000E+0	1.992139E+1	-4.950904E-11	0.000000E+0
3.600000E+0	1.992060E+1	-4.944487E-11	0.000000E+0
3.800000E+0	1.992060E+1	-4.934698E-11	0.000000E+0
4.000000E+0	1.992060E+1	-4.919478E-11	0.000000E+0
4.200000E+0	1.992016E+1	-4.912700E-11	0.000000E+0
4.400000E+0	1.992016E+1	-4.898304E-11	0.000000E+0
4.600000E+0	1.992016E+1	-4.888494E-11	0.000000E+0
4.800000E+0	1.991998E+1	-4.867516E-11	0.000000E+0
5.000000E+0	1.991998E+1	-4.855333E-11	0.000000E+0
5.200000E+0	1.992015E+1	-4.837441E-11	0.000000E+0
5.400000E+0	1.992015E+1	-4.811972E-11	0.000000E+0
5.600000E+0	1.992015E+1	-4.790520E-11	0.000000E+0
5.800000E+0	1.992014E+1	-4.665214E-11	0.000000E+0
6.000000E+0	1.992014E+1	4.113339E-10	0.000000E+0
6.200000E+0	1.992014E+1	3.324211E-8	0.000000E+0
6.400000E+0	1.991987E+1	1.589042E-7	0.000000E+0
6.600000E+0	1.991987E+1	3.379141E-7	0.000000E+0
6.800000E+0	1.991914E+1	5.355771E-7	0.000000E+0
7.000000E+0	1.991914E+1	7.410883E-7	0.000000E+0
7.200000E+0	1.991914E+1	9.500269E-7	0.000000E+0
7.400000E+0	1.991898E+1	1.160859E-6	0.000000E+0
7.600000E+0	1.991898E+1	1.372822E-6	0.000000E+0
7.800000E+0	1.991898E+1	1.584918E-6	0.000000E+0
8.000000E+0	1.991925E+1	1.797272E-6	0.000000E+0
8.200000E+0	1.991925E+1	2.008819E-6	0.000000E+0
8.400000E+0	1.991857E+1	2.220171E-6	0.000000E+0
8.600000E+0	1.991857E+1	2.430673E-6	0.000000E+0
8.800000E+0	1.991857E+1	2.639658E-6	0.000000E+0
9.000000E+0	1.991899E+1	2.847556E-6	0.000000E+0
9.200000E+0	1.991899E+1	3.055031E-6	0.000000E+0
9.400000E+0	1.991899E+1	3.261175E-6	0.000000E+0
9.600000E+0	1.991875E+1	3.465757E-6	0.000000E+0
9.800000E+0	1.991875E+1	3.670313E-6	0.000000E+0
1.000000E+1	1.991911E+1	3.873379E-6	0.000000E+0
1.020000E+1	1.991911E+1	4.075014E-6	0.000000E+0
1.040000E+1	1.991911E+1	4.275428E-6	0.000000E+0
1.060000E+1	1.991854E+1	4.474781E-6	0.000000E+0
1.080000E+1	1.991854E+1	4.672473E-6	0.000000E+0
1.100000E+1	1.991854E+1	4.869895E-6	0.000000E+0
1.120000E+1	1.991826E+1	5.066837E-6	0.000000E+0
1.140000E+1	1.991826E+1	5.262545E-6	0.000000E+0
1.160000E+1	1.991826E+1	5.456616E-6	0.000000E+0
1.180000E+1	1.991819E+1	5.650632E-6	0.000000E+0
1.200000E+1	1.991819E+1	5.842472E-6	0.000000E+0
1.220000E+1	1.991813E+1	6.032917E-6	0.000000E+0
1.240000E+1	1.991813E+1	6.221987E-6	0.000000E+0
1.260000E+1	1.991813E+1	6.419139E-6	0.000000E+0
1.280000E+1	1.991772E+1	6.609401E-6	0.000000E+0
1.300000E+1	1.991772E+1	6.796207E-6	0.000000E+0
1.320000E+1	1.991772E+1	6.981940E-6	0.000000E+0
1.340000E+1	1.991718E+1	7.167650E-6	0.000000E+0
1.360000E+1	1.991718E+1	7.351988E-6	0.000000E+0
1.380000E+1	1.991718E+1	7.535708E-6	0.000000E+0
1.400000E+1	1.991751E+1	7.717611E-6	0.000000E+0
1.420000E+1	1.991751E+1	7.898910E-6	0.000000E+0
1.440000E+1	1.991658E+1	8.079839E-6	0.000000E+0
1.460000E+1	1.991658E+1	8.260115E-6	0.000000E+0
1.480000E+1	1.991658E+1	8.438467E-6	0.000000E+0
1.500000E+1	1.991680E+1	8.616261E-6	0.000000E+0
1.520000E+1	1.991680E+1	8.793692E-6	0.000000E+0
1.540000E+1	1.991680E+1	8.970152E-6	0.000000E+0
1.560000E+1	1.991649E+1	9.146096E-6	0.000000E+0
1.580000E+1	1.991649E+1	9.319487E-6	0.000000E+0
1.600000E+1	1.991684E+1	9.494423E-6	0.000000E+0
END