IV MEASUREMENT
:start
2017-02-24 22:23:46
:stop
2017-02-24 22:30:13
:device
M200Y_06_HPKTS_2_MOSFET
:tester
Ioannis
:atmosphere
Air
:environment
Probe Station
:Instruments
VI Kei6487,CV AgE4980A,GI NM,T Kei2700
:Comment
circular, nMOSFET, Ids vs Vgate, Vback=-6.9971V,Vds=0.05V, Bef.irrad., precision meas. of Vback
 power lower < 1mW, probe station, wait. time 0 sec,after gluing
Annealing time [min]:
0@0
:temperature [C]
19.980007
:start,stop voltage [V] & number of points
-6.000000,16.000000,111
:Voltage increment and increment speed
1.000000,0.500000
:polarity and ramp mode
negative,0
:Current meter range
Auto
:Averaging (int,ext,NPLC,Median Rank)
3,5
3.000000
3
:legend
bias [V],T[C],Current[Amp],Guard Current[Amp]
BEGIN
-6.000000E+0	1.998254E+1	-1.278765E-11	0.000000E+0
-5.800000E+0	1.998254E+1	-1.485833E-11	0.000000E+0
-5.600000E+0	1.998218E+1	-1.763550E-11	0.000000E+0
-5.400000E+0	1.998218E+1	-2.048186E-11	0.000000E+0
-5.200000E+0	1.998218E+1	-2.354688E-11	0.000000E+0
-5.000000E+0	1.998183E+1	-2.642382E-11	0.000000E+0
-4.800000E+0	1.998183E+1	-2.868074E-11	0.000000E+0
-4.600000E+0	1.998277E+1	-3.029205E-11	0.000000E+0
-4.400000E+0	1.998277E+1	-3.138175E-11	0.000000E+0
-4.200000E+0	1.998277E+1	-3.221732E-11	0.000000E+0
-4.000000E+0	1.998271E+1	-3.315272E-11	0.000000E+0
-3.800000E+0	1.998271E+1	-3.392539E-11	0.000000E+0
-3.600000E+0	1.998271E+1	-3.466931E-11	0.000000E+0
-3.400000E+0	1.998264E+1	-3.548292E-11	0.000000E+0
-3.200000E+0	1.998264E+1	-3.617120E-11	0.000000E+0
-3.000000E+0	1.998264E+1	-3.703333E-11	0.000000E+0
-2.800000E+0	1.998228E+1	-3.787863E-11	0.000000E+0
-2.600000E+0	1.998228E+1	-3.873487E-11	0.000000E+0
-2.400000E+0	1.998200E+1	-3.952787E-11	0.000000E+0
-2.200000E+0	1.998200E+1	-4.035055E-11	0.000000E+0
-2.000000E+0	1.998200E+1	-4.118515E-11	0.000000E+0
-1.800000E+0	1.998226E+1	-4.205877E-11	0.000000E+0
-1.600000E+0	1.998226E+1	-4.286765E-11	0.000000E+0
-1.400000E+0	1.998226E+1	-4.374804E-11	0.000000E+0
-1.200000E+0	1.998260E+1	-4.455256E-11	0.000000E+0
-1.000000E+0	1.998260E+1	-4.553815E-11	0.000000E+0
-8.000000E-1	1.998177E+1	-4.625117E-11	0.000000E+0
-6.000000E-1	1.998177E+1	-4.711445E-11	0.000000E+0
-4.000000E-1	1.998177E+1	-4.767431E-11	0.000000E+0
-2.000000E-1	1.998173E+1	-4.794126E-11	0.000000E+0
3.053113E-15	1.998173E+1	-4.800534E-11	0.000000E+0
2.000000E-1	1.998173E+1	-4.813637E-11	0.000000E+0
4.000000E-1	1.998131E+1	-4.821556E-11	0.000000E+0
6.000000E-1	1.998131E+1	-4.824726E-11	0.000000E+0
8.000000E-1	1.998131E+1	-4.832330E-11	0.000000E+0
1.000000E+0	1.998173E+1	-4.831840E-11	0.000000E+0
1.200000E+0	1.998173E+1	-4.833017E-11	0.000000E+0
1.400000E+0	1.998197E+1	-4.839904E-11	0.000000E+0
1.600000E+0	1.998197E+1	-4.835753E-11	0.000000E+0
1.800000E+0	1.998197E+1	-4.835616E-11	0.000000E+0
2.000000E+0	1.998133E+1	-4.841167E-11	0.000000E+0
2.200000E+0	1.998133E+1	-4.840296E-11	0.000000E+0
2.400000E+0	1.998133E+1	-4.832514E-11	0.000000E+0
2.600000E+0	1.998061E+1	-4.834770E-11	0.000000E+0
2.800000E+0	1.998061E+1	-4.821452E-11	0.000000E+0
3.000000E+0	1.998086E+1	-4.824027E-11	0.000000E+0
3.200000E+0	1.998086E+1	-4.814387E-11	0.000000E+0
3.400000E+0	1.998086E+1	-4.808674E-11	0.000000E+0
3.600000E+0	1.998083E+1	-4.803663E-11	0.000000E+0
3.800000E+0	1.998083E+1	-4.800102E-11	0.000000E+0
4.000000E+0	1.998083E+1	-4.786027E-11	0.000000E+0
4.200000E+0	1.998104E+1	-4.780863E-11	0.000000E+0
4.400000E+0	1.998104E+1	-4.764990E-11	0.000000E+0
4.600000E+0	1.998104E+1	-4.756707E-11	0.000000E+0
4.800000E+0	1.998046E+1	-4.744695E-11	0.000000E+0
5.000000E+0	1.998046E+1	-4.730094E-11	0.000000E+0
5.200000E+0	1.998004E+1	-4.704422E-11	0.000000E+0
5.400000E+0	1.998004E+1	-2.720737E-11	0.000000E+0
5.600000E+0	1.998004E+1	5.420255E-9	0.000000E+0
5.800000E+0	1.998006E+1	8.204590E-8	0.000000E+0
6.000000E+0	1.998006E+1	2.388305E-7	0.000000E+0
6.200000E+0	1.997968E+1	4.301542E-7	0.000000E+0
6.400000E+0	1.997968E+1	6.340313E-7	0.000000E+0
6.600000E+0	1.997968E+1	8.435622E-7	0.000000E+0
6.800000E+0	1.997924E+1	1.055543E-6	0.000000E+0
7.000000E+0	1.997924E+1	1.269347E-6	0.000000E+0
7.200000E+0	1.997924E+1	1.483240E-6	0.000000E+0
7.400000E+0	1.997909E+1	1.697135E-6	0.000000E+0
7.600000E+0	1.997909E+1	1.911173E-6	0.000000E+0
7.800000E+0	1.997878E+1	2.122363E-6	0.000000E+0
8.000000E+0	1.997878E+1	2.334736E-6	0.000000E+0
8.200000E+0	1.997878E+1	2.546718E-6	0.000000E+0
8.400000E+0	1.997931E+1	2.757411E-6	0.000000E+0
8.600000E+0	1.997931E+1	2.967691E-6	0.000000E+0
8.800000E+0	1.997931E+1	3.176010E-6	0.000000E+0
9.000000E+0	1.997920E+1	3.383454E-6	0.000000E+0
9.200000E+0	1.997920E+1	3.590953E-6	0.000000E+0
9.400000E+0	1.997920E+1	3.796248E-6	0.000000E+0
9.600000E+0	1.997881E+1	4.000856E-6	0.000000E+0
9.800000E+0	1.997881E+1	4.203530E-6	0.000000E+0
1.000000E+1	1.997760E+1	4.405724E-6	0.000000E+0
1.020000E+1	1.997760E+1	4.606491E-6	0.000000E+0
1.040000E+1	1.997760E+1	4.806491E-6	0.000000E+0
1.060000E+1	1.997810E+1	5.005381E-6	0.000000E+0
1.080000E+1	1.997810E+1	5.202513E-6	0.000000E+0
1.100000E+1	1.997810E+1	5.399432E-6	0.000000E+0
1.120000E+1	1.997814E+1	5.595953E-6	0.000000E+0
1.140000E+1	1.997814E+1	5.789419E-6	0.000000E+0
1.160000E+1	1.997814E+1	5.982416E-6	0.000000E+0
1.180000E+1	1.997731E+1	6.174697E-6	0.000000E+0
1.200000E+1	1.997731E+1	6.365862E-6	0.000000E+0
1.220000E+1	1.997702E+1	6.555726E-6	0.000000E+0
1.240000E+1	1.997702E+1	6.745303E-6	0.000000E+0
1.260000E+1	1.997702E+1	6.940395E-6	0.000000E+0
1.280000E+1	1.997724E+1	7.129250E-6	0.000000E+0
1.300000E+1	1.997724E+1	7.315464E-6	0.000000E+0
1.320000E+1	1.997724E+1	7.500675E-6	0.000000E+0
1.340000E+1	1.997719E+1	7.685343E-6	0.000000E+0
1.360000E+1	1.997719E+1	7.868806E-6	0.000000E+0
1.380000E+1	1.997691E+1	8.051170E-6	0.000000E+0
1.400000E+1	1.997691E+1	8.231962E-6	0.000000E+0
1.420000E+1	1.997691E+1	8.412532E-6	0.000000E+0
1.440000E+1	1.997692E+1	8.591960E-6	0.000000E+0
1.460000E+1	1.997692E+1	8.770998E-6	0.000000E+0
1.480000E+1	1.997692E+1	8.948936E-6	0.000000E+0
1.500000E+1	1.997735E+1	9.125704E-6	0.000000E+0
1.520000E+1	1.997735E+1	9.303079E-6	0.000000E+0
1.540000E+1	1.997735E+1	9.477435E-6	0.000000E+0
1.560000E+1	1.997613E+1	9.651342E-6	0.000000E+0
1.580000E+1	1.997613E+1	9.825998E-6	0.000000E+0
1.600000E+1	1.997684E+1	1.000371E-5	0.000000E+0
END