IV MEASUREMENT
:start
2017-02-24 22:12:08
:stop
2017-02-24 22:18:35
:device
M200Y_06_HPKTS_2_MOSFET
:tester
Ioannis
:atmosphere
Air
:environment
Probe Station
:Instruments
VI Kei6487,CV AgE4980A,GI NM,T Kei2700
:Comment
circular, nMOSFET, Ids vs Vgate, Vback=-5.9968V,Vds=0.05V, Bef.irrad., precision meas. of Vback
 power lower < 1mW, probe station, wait. time 0 sec,after gluing
Annealing time [min]:
0@0
:temperature [C]
19.992298
:start,stop voltage [V] & number of points
-6.000000,16.000000,111
:Voltage increment and increment speed
1.000000,0.500000
:polarity and ramp mode
negative,0
:Current meter range
Auto
:Averaging (int,ext,NPLC,Median Rank)
3,5
3.000000
3
:legend
bias [V],T[C],Current[Amp],Guard Current[Amp]
BEGIN
-6.000000E+0	1.999589E+1	-6.003456E-12	0.000000E+0
-5.800000E+0	1.999589E+1	-6.221699E-12	0.000000E+0
-5.600000E+0	1.999583E+1	-6.800649E-12	0.000000E+0
-5.400000E+0	1.999583E+1	-7.959673E-12	0.000000E+0
-5.200000E+0	1.999583E+1	-9.824564E-12	0.000000E+0
-5.000000E+0	1.999543E+1	-1.219206E-11	0.000000E+0
-4.800000E+0	1.999543E+1	-1.478250E-11	0.000000E+0
-4.600000E+0	1.999466E+1	-1.745661E-11	0.000000E+0
-4.400000E+0	1.999466E+1	-2.041166E-11	0.000000E+0
-4.200000E+0	1.999466E+1	-2.337651E-11	0.000000E+0
-4.000000E+0	1.999489E+1	-2.619964E-11	0.000000E+0
-3.800000E+0	1.999489E+1	-2.844462E-11	0.000000E+0
-3.600000E+0	1.999489E+1	-3.014723E-11	0.000000E+0
-3.400000E+0	1.999454E+1	-3.123362E-11	0.000000E+0
-3.200000E+0	1.999454E+1	-3.210702E-11	0.000000E+0
-3.000000E+0	1.999454E+1	-3.294043E-11	0.000000E+0
-2.800000E+0	1.999452E+1	-3.371922E-11	0.000000E+0
-2.600000E+0	1.999452E+1	-3.451892E-11	0.000000E+0
-2.400000E+0	1.999419E+1	-3.527331E-11	0.000000E+0
-2.200000E+0	1.999419E+1	-3.613299E-11	0.000000E+0
-2.000000E+0	1.999419E+1	-3.689518E-11	0.000000E+0
-1.800000E+0	1.999402E+1	-3.770693E-11	0.000000E+0
-1.600000E+0	1.999402E+1	-3.853837E-11	0.000000E+0
-1.400000E+0	1.999402E+1	-3.941022E-11	0.000000E+0
-1.200000E+0	1.999387E+1	-4.011575E-11	0.000000E+0
-1.000000E+0	1.999387E+1	-4.096365E-11	0.000000E+0
-8.000000E-1	1.999435E+1	-4.184107E-11	0.000000E+0
-6.000000E-1	1.999435E+1	-4.264277E-11	0.000000E+0
-4.000000E-1	1.999435E+1	-4.351850E-11	0.000000E+0
-2.000000E-1	1.999368E+1	-4.434957E-11	0.000000E+0
3.053113E-15	1.999368E+1	-4.520778E-11	0.000000E+0
2.000000E-1	1.999368E+1	-4.601327E-11	0.000000E+0
4.000000E-1	1.999380E+1	-4.679267E-11	0.000000E+0
6.000000E-1	1.999380E+1	-4.748786E-11	0.000000E+0
8.000000E-1	1.999380E+1	-4.772280E-11	0.000000E+0
1.000000E+0	1.999314E+1	-4.786129E-11	0.000000E+0
1.200000E+0	1.999314E+1	-4.799718E-11	0.000000E+0
1.400000E+0	1.999363E+1	-4.803277E-11	0.000000E+0
1.600000E+0	1.999363E+1	-4.813632E-11	0.000000E+0
1.800000E+0	1.999363E+1	-4.813853E-11	0.000000E+0
2.000000E+0	1.999284E+1	-4.815748E-11	0.000000E+0
2.200000E+0	1.999284E+1	-4.816911E-11	0.000000E+0
2.400000E+0	1.999284E+1	-4.819125E-11	0.000000E+0
2.600000E+0	1.999310E+1	-4.817090E-11	0.000000E+0
2.800000E+0	1.999310E+1	-4.817972E-11	0.000000E+0
3.000000E+0	1.999228E+1	-4.816235E-11	0.000000E+0
3.200000E+0	1.999228E+1	-4.807852E-11	0.000000E+0
3.400000E+0	1.999228E+1	-4.806551E-11	0.000000E+0
3.600000E+0	1.999201E+1	-4.792475E-11	0.000000E+0
3.800000E+0	1.999201E+1	-4.802974E-11	0.000000E+0
4.000000E+0	1.999201E+1	-4.785793E-11	0.000000E+0
4.200000E+0	1.999224E+1	-4.775998E-11	0.000000E+0
4.400000E+0	1.999224E+1	-4.763549E-11	0.000000E+0
4.600000E+0	1.999224E+1	-4.757818E-11	0.000000E+0
4.800000E+0	1.999236E+1	-4.744996E-11	0.000000E+0
5.000000E+0	1.999236E+1	-4.727853E-11	0.000000E+0
5.200000E+0	1.999200E+1	-4.695855E-11	0.000000E+0
5.400000E+0	1.999200E+1	3.616921E-11	0.000000E+0
5.600000E+0	1.999200E+1	1.349691E-8	0.000000E+0
5.800000E+0	1.999232E+1	1.123590E-7	0.000000E+0
6.000000E+0	1.999232E+1	2.805304E-7	0.000000E+0
6.200000E+0	1.999157E+1	4.758990E-7	0.000000E+0
6.400000E+0	1.999157E+1	6.814135E-7	0.000000E+0
6.600000E+0	1.999157E+1	8.920110E-7	0.000000E+0
6.800000E+0	1.999135E+1	1.104792E-6	0.000000E+0
7.000000E+0	1.999135E+1	1.318826E-6	0.000000E+0
7.200000E+0	1.999135E+1	1.533111E-6	0.000000E+0
7.400000E+0	1.999152E+1	1.747462E-6	0.000000E+0
7.600000E+0	1.999152E+1	1.961552E-6	0.000000E+0
7.800000E+0	1.999134E+1	2.173381E-6	0.000000E+0
8.000000E+0	1.999134E+1	2.385901E-6	0.000000E+0
8.200000E+0	1.999134E+1	2.597935E-6	0.000000E+0
8.400000E+0	1.999111E+1	2.808367E-6	0.000000E+0
8.600000E+0	1.999111E+1	3.017545E-6	0.000000E+0
8.800000E+0	1.999111E+1	3.226652E-6	0.000000E+0
9.000000E+0	1.999138E+1	3.434477E-6	0.000000E+0
9.200000E+0	1.999138E+1	3.640954E-6	0.000000E+0
9.400000E+0	1.999138E+1	3.846450E-6	0.000000E+0
9.600000E+0	1.999145E+1	4.050525E-6	0.000000E+0
9.800000E+0	1.999145E+1	4.253787E-6	0.000000E+0
1.000000E+1	1.999120E+1	4.455689E-6	0.000000E+0
1.020000E+1	1.999120E+1	4.657086E-6	0.000000E+0
1.040000E+1	1.999120E+1	4.857000E-6	0.000000E+0
1.060000E+1	1.999125E+1	5.055361E-6	0.000000E+0
1.080000E+1	1.999125E+1	5.252931E-6	0.000000E+0
1.100000E+1	1.999125E+1	5.449292E-6	0.000000E+0
1.120000E+1	1.999072E+1	5.644423E-6	0.000000E+0
1.140000E+1	1.999072E+1	5.838998E-6	0.000000E+0
1.160000E+1	1.999072E+1	6.032179E-6	0.000000E+0
1.180000E+1	1.999059E+1	6.224220E-6	0.000000E+0
1.200000E+1	1.999059E+1	6.415497E-6	0.000000E+0
1.220000E+1	1.999024E+1	6.604557E-6	0.000000E+0
1.240000E+1	1.999024E+1	6.793636E-6	0.000000E+0
1.260000E+1	1.999024E+1	6.990029E-6	0.000000E+0
1.280000E+1	1.998996E+1	7.178435E-6	0.000000E+0
1.300000E+1	1.998996E+1	7.364379E-6	0.000000E+0
1.320000E+1	1.998996E+1	7.549494E-6	0.000000E+0
1.340000E+1	1.999014E+1	7.734285E-6	0.000000E+0
1.360000E+1	1.999014E+1	7.917697E-6	0.000000E+0
1.380000E+1	1.998949E+1	8.099177E-6	0.000000E+0
1.400000E+1	1.998949E+1	8.280177E-6	0.000000E+0
1.420000E+1	1.998949E+1	8.460286E-6	0.000000E+0
1.440000E+1	1.998985E+1	8.639686E-6	0.000000E+0
1.460000E+1	1.998985E+1	8.819041E-6	0.000000E+0
1.480000E+1	1.998985E+1	8.996098E-6	0.000000E+0
1.500000E+1	1.998886E+1	9.171819E-6	0.000000E+0
1.520000E+1	1.998886E+1	9.348653E-6	0.000000E+0
1.540000E+1	1.998886E+1	9.525616E-6	0.000000E+0
1.560000E+1	1.998874E+1	9.700508E-6	0.000000E+0
1.580000E+1	1.998874E+1	9.874105E-6	0.000000E+0
1.600000E+1	1.998910E+1	1.004689E-5	0.000000E+0
END