IV MEASUREMENT
:start
2017-02-24 20:41:19
:stop
2017-02-24 20:47:46
:device
M200Y_06_HPKTS_2_MOSFET
:tester
Ioannis
:atmosphere
Air
:environment
Probe Station
:Instruments
VI Kei6487,CV AgE4980A,GI NM,T Kei2700
:Comment
circular, nMOSFET, Ids vs Vgate, Vback=-2.2960V,Vds=0.05V, Bef.irrad., precision meas. of Vback
 power lower < 1mW, probe station, wait. time 0 sec,after gluing
Annealing time [min]:
0@0
:temperature [C]
20.117677
:start,stop voltage [V] & number of points
-6.000000,16.000000,111
:Voltage increment and increment speed
1.000000,0.500000
:polarity and ramp mode
negative,0
:Current meter range
Auto
:Averaging (int,ext,NPLC,Median Rank)
3,5
3.000000
3
:legend
bias [V],T[C],Current[Amp],Guard Current[Amp]
BEGIN
-6.000000E+0	2.012052E+1	-4.455900E-12	0.000000E+0
-5.800000E+0	2.012052E+1	-4.458615E-12	0.000000E+0
-5.600000E+0	2.011995E+1	-4.440193E-12	0.000000E+0
-5.400000E+0	2.011995E+1	-4.382973E-12	0.000000E+0
-5.200000E+0	2.011995E+1	-4.433842E-12	0.000000E+0
-5.000000E+0	2.011965E+1	-4.458593E-12	0.000000E+0
-4.800000E+0	2.011965E+1	-4.413939E-12	0.000000E+0
-4.600000E+0	2.011987E+1	-4.432002E-12	0.000000E+0
-4.400000E+0	2.011987E+1	-4.395696E-12	0.000000E+0
-4.200000E+0	2.011987E+1	-4.414140E-12	0.000000E+0
-4.000000E+0	2.011928E+1	-4.473110E-12	0.000000E+0
-3.800000E+0	2.011928E+1	-4.421343E-12	0.000000E+0
-3.600000E+0	2.011928E+1	-4.443850E-12	0.000000E+0
-3.400000E+0	2.011891E+1	-4.402697E-12	0.000000E+0
-3.200000E+0	2.011891E+1	-4.451389E-12	0.000000E+0
-3.000000E+0	2.011955E+1	-4.532753E-12	0.000000E+0
-2.800000E+0	2.011955E+1	-4.552252E-12	0.000000E+0
-2.600000E+0	2.011955E+1	-4.633145E-12	0.000000E+0
-2.400000E+0	2.011873E+1	-4.688122E-12	0.000000E+0
-2.200000E+0	2.011873E+1	-4.904973E-12	0.000000E+0
-2.000000E+0	2.011873E+1	-5.281118E-12	0.000000E+0
-1.800000E+0	2.011939E+1	-6.152271E-12	0.000000E+0
-1.600000E+0	2.011939E+1	-7.738557E-12	0.000000E+0
-1.400000E+0	2.011939E+1	-9.904106E-12	0.000000E+0
-1.200000E+0	2.011865E+1	-1.240521E-11	0.000000E+0
-1.000000E+0	2.011865E+1	-1.507387E-11	0.000000E+0
-8.000000E-1	2.011951E+1	-1.792089E-11	0.000000E+0
-6.000000E-1	2.011951E+1	-2.096700E-11	0.000000E+0
-4.000000E-1	2.011951E+1	-2.389446E-11	0.000000E+0
-2.000000E-1	2.011914E+1	-2.651881E-11	0.000000E+0
3.053113E-15	2.011914E+1	-2.839164E-11	0.000000E+0
2.000000E-1	2.011914E+1	-2.982518E-11	0.000000E+0
4.000000E-1	2.011870E+1	-3.087427E-11	0.000000E+0
6.000000E-1	2.011870E+1	-3.174318E-11	0.000000E+0
8.000000E-1	2.011914E+1	-3.250918E-11	0.000000E+0
1.000000E+0	2.011914E+1	-3.330775E-11	0.000000E+0
1.200000E+0	2.011914E+1	-3.408795E-11	0.000000E+0
1.400000E+0	2.011885E+1	-3.481377E-11	0.000000E+0
1.600000E+0	2.011885E+1	-3.567076E-11	0.000000E+0
1.800000E+0	2.011885E+1	-3.653072E-11	0.000000E+0
2.000000E+0	2.011876E+1	-3.736316E-11	0.000000E+0
2.200000E+0	2.011876E+1	-3.816520E-11	0.000000E+0
2.400000E+0	2.011876E+1	-3.891475E-11	0.000000E+0
2.600000E+0	2.011915E+1	-3.983083E-11	0.000000E+0
2.800000E+0	2.011915E+1	-4.063774E-11	0.000000E+0
3.000000E+0	2.011816E+1	-4.148455E-11	0.000000E+0
3.200000E+0	2.011816E+1	-4.238164E-11	0.000000E+0
3.400000E+0	2.011816E+1	-4.317194E-11	0.000000E+0
3.600000E+0	2.011791E+1	-4.406591E-11	0.000000E+0
3.800000E+0	2.011791E+1	-4.495197E-11	0.000000E+0
4.000000E+0	2.011791E+1	-4.580157E-11	0.000000E+0
4.200000E+0	2.011791E+1	-4.650582E-11	0.000000E+0
4.400000E+0	2.011791E+1	-4.682592E-11	0.000000E+0
4.600000E+0	2.011791E+1	-4.703036E-11	0.000000E+0
4.800000E+0	2.011791E+1	-4.703305E-11	0.000000E+0
5.000000E+0	2.011791E+1	-4.454645E-11	0.000000E+0
5.200000E+0	2.011736E+1	8.411032E-10	0.000000E+0
5.400000E+0	2.011736E+1	3.796035E-8	0.000000E+0
5.600000E+0	2.011736E+1	1.650957E-7	0.000000E+0
5.800000E+0	2.011757E+1	3.447688E-7	0.000000E+0
6.000000E+0	2.011757E+1	5.444415E-7	0.000000E+0
6.200000E+0	2.011731E+1	7.522414E-7	0.000000E+0
6.400000E+0	2.011731E+1	9.641123E-7	0.000000E+0
6.600000E+0	2.011731E+1	1.178452E-6	0.000000E+0
6.800000E+0	2.011709E+1	1.393407E-6	0.000000E+0
7.000000E+0	2.011709E+1	1.608934E-6	0.000000E+0
7.200000E+0	2.011709E+1	1.824088E-6	0.000000E+0
7.400000E+0	2.011678E+1	2.038724E-6	0.000000E+0
7.600000E+0	2.011678E+1	2.252801E-6	0.000000E+0
7.800000E+0	2.011678E+1	2.466314E-6	0.000000E+0
8.000000E+0	2.011731E+1	2.678427E-6	0.000000E+0
8.200000E+0	2.011731E+1	2.890272E-6	0.000000E+0
8.400000E+0	2.011672E+1	3.100742E-6	0.000000E+0
8.600000E+0	2.011672E+1	3.310239E-6	0.000000E+0
8.800000E+0	2.011672E+1	3.518797E-6	0.000000E+0
9.000000E+0	2.011662E+1	3.725408E-6	0.000000E+0
9.200000E+0	2.011662E+1	3.931610E-6	0.000000E+0
9.400000E+0	2.011662E+1	4.135873E-6	0.000000E+0
9.600000E+0	2.011687E+1	4.339332E-6	0.000000E+0
9.800000E+0	2.011687E+1	4.541815E-6	0.000000E+0
1.000000E+1	2.011663E+1	4.743299E-6	0.000000E+0
1.020000E+1	2.011663E+1	4.943555E-6	0.000000E+0
1.040000E+1	2.011663E+1	5.143030E-6	0.000000E+0
1.060000E+1	2.011654E+1	5.341635E-6	0.000000E+0
1.080000E+1	2.011654E+1	5.538540E-6	0.000000E+0
1.100000E+1	2.011654E+1	5.734325E-6	0.000000E+0
1.120000E+1	2.011627E+1	5.929444E-6	0.000000E+0
1.140000E+1	2.011627E+1	6.123626E-6	0.000000E+0
1.160000E+1	2.011627E+1	6.316059E-6	0.000000E+0
1.180000E+1	2.011602E+1	6.506967E-6	0.000000E+0
1.200000E+1	2.011602E+1	6.697445E-6	0.000000E+0
1.220000E+1	2.011584E+1	6.884865E-6	0.000000E+0
1.240000E+1	2.011584E+1	7.072171E-6	0.000000E+0
1.260000E+1	2.011584E+1	7.267258E-6	0.000000E+0
1.280000E+1	2.011552E+1	7.455300E-6	0.000000E+0
1.300000E+1	2.011552E+1	7.641523E-6	0.000000E+0
1.320000E+1	2.011552E+1	7.826397E-6	0.000000E+0
1.340000E+1	2.011542E+1	8.010025E-6	0.000000E+0
1.360000E+1	2.011542E+1	8.192532E-6	0.000000E+0
1.380000E+1	2.011542E+1	8.373639E-6	0.000000E+0
1.400000E+1	2.011571E+1	8.554825E-6	0.000000E+0
1.420000E+1	2.011571E+1	8.733705E-6	0.000000E+0
1.440000E+1	2.011531E+1	8.913535E-6	0.000000E+0
1.460000E+1	2.011531E+1	9.090330E-6	0.000000E+0
1.480000E+1	2.011531E+1	9.267833E-6	0.000000E+0
1.500000E+1	2.011486E+1	9.445850E-6	0.000000E+0
1.520000E+1	2.011486E+1	9.621613E-6	0.000000E+0
1.540000E+1	2.011486E+1	9.796354E-6	0.000000E+0
1.560000E+1	2.011500E+1	9.970806E-6	0.000000E+0
1.580000E+1	2.011500E+1	1.014731E-5	0.000000E+0
1.600000E+1	2.011493E+1	1.031719E-5	0.000000E+0
END