IV MEASUREMENT
:start
2017-02-24 21:58:11
:stop
2017-02-24 22:04:38
:device
M200Y_06_HPKTS_2_MOSFET
:tester
Ioannis
:atmosphere
Air
:environment
Probe Station
:Instruments
VI Kei6487,CV AgE4980A,GI NM,T Kei2700
:Comment
circular, nMOSFET, Ids vs Vgate, Vback=-4.9966V,Vds=0.05V, Bef.irrad., precision meas. of Vback
 power lower < 1mW, probe station, wait. time 0 sec,after gluing
Annealing time [min]:
0@0
:temperature [C]
20.011472
:start,stop voltage [V] & number of points
-6.000000,16.000000,111
:Voltage increment and increment speed
1.000000,0.500000
:polarity and ramp mode
negative,0
:Current meter range
Auto
:Averaging (int,ext,NPLC,Median Rank)
3,5
3.000000
3
:legend
bias [V],T[C],Current[Amp],Guard Current[Amp]
BEGIN
-6.000000E+0	2.001588E+1	-5.210486E-12	0.000000E+0
-5.800000E+0	2.001588E+1	-5.368209E-12	0.000000E+0
-5.600000E+0	2.001463E+1	-5.317475E-12	0.000000E+0
-5.400000E+0	2.001463E+1	-5.434383E-12	0.000000E+0
-5.200000E+0	2.001463E+1	-5.546399E-12	0.000000E+0
-5.000000E+0	2.001474E+1	-5.714356E-12	0.000000E+0
-4.800000E+0	2.001474E+1	-5.965988E-12	0.000000E+0
-4.600000E+0	2.001452E+1	-6.587304E-12	0.000000E+0
-4.400000E+0	2.001452E+1	-7.715767E-12	0.000000E+0
-4.200000E+0	2.001452E+1	-9.663972E-12	0.000000E+0
-4.000000E+0	2.001468E+1	-1.196483E-11	0.000000E+0
-3.800000E+0	2.001468E+1	-1.451360E-11	0.000000E+0
-3.600000E+0	2.001468E+1	-1.721356E-11	0.000000E+0
-3.400000E+0	2.001417E+1	-2.009095E-11	0.000000E+0
-3.200000E+0	2.001417E+1	-2.309869E-11	0.000000E+0
-3.000000E+0	2.001359E+1	-2.587005E-11	0.000000E+0
-2.800000E+0	2.001359E+1	-2.821269E-11	0.000000E+0
-2.600000E+0	2.001359E+1	-2.980324E-11	0.000000E+0
-2.400000E+0	2.001404E+1	-3.097346E-11	0.000000E+0
-2.200000E+0	2.001404E+1	-3.189096E-11	0.000000E+0
-2.000000E+0	2.001404E+1	-3.269078E-11	0.000000E+0
-1.800000E+0	2.001422E+1	-3.344298E-11	0.000000E+0
-1.600000E+0	2.001422E+1	-3.422215E-11	0.000000E+0
-1.400000E+0	2.001422E+1	-3.506842E-11	0.000000E+0
-1.200000E+0	2.001370E+1	-3.579975E-11	0.000000E+0
-1.000000E+0	2.001370E+1	-3.672546E-11	0.000000E+0
-8.000000E-1	2.001398E+1	-3.744017E-11	0.000000E+0
-6.000000E-1	2.001398E+1	-3.823981E-11	0.000000E+0
-4.000000E-1	2.001398E+1	-3.910252E-11	0.000000E+0
-2.000000E-1	2.001336E+1	-3.990384E-11	0.000000E+0
3.053113E-15	2.001336E+1	-4.069817E-11	0.000000E+0
2.000000E-1	2.001336E+1	-4.154235E-11	0.000000E+0
4.000000E-1	2.001308E+1	-4.241077E-11	0.000000E+0
6.000000E-1	2.001308E+1	-4.323586E-11	0.000000E+0
8.000000E-1	2.001271E+1	-4.409314E-11	0.000000E+0
1.000000E+0	2.001271E+1	-4.518134E-11	0.000000E+0
1.200000E+0	2.001271E+1	-4.584926E-11	0.000000E+0
1.400000E+0	2.001284E+1	-4.660717E-11	0.000000E+0
1.600000E+0	2.001284E+1	-4.711598E-11	0.000000E+0
1.800000E+0	2.001284E+1	-4.748249E-11	0.000000E+0
2.000000E+0	2.001224E+1	-4.756062E-11	0.000000E+0
2.200000E+0	2.001224E+1	-4.741768E-11	0.000000E+0
2.400000E+0	2.001224E+1	-4.791602E-11	0.000000E+0
2.600000E+0	2.001223E+1	-4.787944E-11	0.000000E+0
2.800000E+0	2.001223E+1	-4.793197E-11	0.000000E+0
3.000000E+0	2.001240E+1	-4.786921E-11	0.000000E+0
3.200000E+0	2.001240E+1	-4.794884E-11	0.000000E+0
3.400000E+0	2.001240E+1	-4.812463E-11	0.000000E+0
3.600000E+0	2.001217E+1	-4.791292E-11	0.000000E+0
3.800000E+0	2.001217E+1	-4.793572E-11	0.000000E+0
4.000000E+0	2.001217E+1	-4.779831E-11	0.000000E+0
4.200000E+0	2.001254E+1	-4.786789E-11	0.000000E+0
4.400000E+0	2.001254E+1	-4.750579E-11	0.000000E+0
4.600000E+0	2.001254E+1	-4.765681E-11	0.000000E+0
4.800000E+0	2.001228E+1	-4.752172E-11	0.000000E+0
5.000000E+0	2.001228E+1	-4.720418E-11	0.000000E+0
5.200000E+0	2.001231E+1	-4.612614E-11	0.000000E+0
5.400000E+0	2.001231E+1	3.627802E-10	0.000000E+0
5.600000E+0	2.001231E+1	3.013520E-8	0.000000E+0
5.800000E+0	2.001171E+1	1.519817E-7	0.000000E+0
6.000000E+0	2.001171E+1	3.305391E-7	0.000000E+0
6.200000E+0	2.001139E+1	5.295359E-7	0.000000E+0
6.400000E+0	2.001139E+1	7.368775E-7	0.000000E+0
6.600000E+0	2.001139E+1	9.482028E-7	0.000000E+0
6.800000E+0	2.001043E+1	1.161712E-6	0.000000E+0
7.000000E+0	2.001043E+1	1.376237E-6	0.000000E+0
7.200000E+0	2.001043E+1	1.590676E-6	0.000000E+0
7.400000E+0	2.001057E+1	1.804856E-6	0.000000E+0
7.600000E+0	2.001057E+1	2.019219E-6	0.000000E+0
7.800000E+0	2.001057E+1	2.231935E-6	0.000000E+0
8.000000E+0	2.001023E+1	2.444548E-6	0.000000E+0
8.200000E+0	2.001023E+1	2.656343E-6	0.000000E+0
8.400000E+0	2.001036E+1	2.867086E-6	0.000000E+0
8.600000E+0	2.001036E+1	3.077057E-6	0.000000E+0
8.800000E+0	2.001036E+1	3.285594E-6	0.000000E+0
9.000000E+0	2.001045E+1	3.493137E-6	0.000000E+0
9.200000E+0	2.001045E+1	3.700092E-6	0.000000E+0
9.400000E+0	2.001045E+1	3.904962E-6	0.000000E+0
9.600000E+0	2.001027E+1	4.109017E-6	0.000000E+0
9.800000E+0	2.001027E+1	4.312247E-6	0.000000E+0
1.000000E+1	2.000974E+1	4.514343E-6	0.000000E+0
1.020000E+1	2.000974E+1	4.715300E-6	0.000000E+0
1.040000E+1	2.000974E+1	4.914771E-6	0.000000E+0
1.060000E+1	2.000917E+1	5.113027E-6	0.000000E+0
1.080000E+1	2.000917E+1	5.309948E-6	0.000000E+0
1.100000E+1	2.000917E+1	5.505787E-6	0.000000E+0
1.120000E+1	2.000894E+1	5.701297E-6	0.000000E+0
1.140000E+1	2.000894E+1	5.895697E-6	0.000000E+0
1.160000E+1	2.000894E+1	6.088732E-6	0.000000E+0
1.180000E+1	2.000842E+1	6.279967E-6	0.000000E+0
1.200000E+1	2.000842E+1	6.470944E-6	0.000000E+0
1.220000E+1	2.000839E+1	6.660328E-6	0.000000E+0
1.240000E+1	2.000839E+1	6.849504E-6	0.000000E+0
1.260000E+1	2.000839E+1	7.044556E-6	0.000000E+0
1.280000E+1	2.000822E+1	7.233528E-6	0.000000E+0
1.300000E+1	2.000822E+1	7.421223E-6	0.000000E+0
1.320000E+1	2.000822E+1	7.605050E-6	0.000000E+0
1.340000E+1	2.000798E+1	7.789513E-6	0.000000E+0
1.360000E+1	2.000798E+1	7.974236E-6	0.000000E+0
1.380000E+1	2.000798E+1	8.155697E-6	0.000000E+0
1.400000E+1	2.000763E+1	8.334773E-6	0.000000E+0
1.420000E+1	2.000763E+1	8.514593E-6	0.000000E+0
1.440000E+1	2.000770E+1	8.694133E-6	0.000000E+0
1.460000E+1	2.000770E+1	8.873196E-6	0.000000E+0
1.480000E+1	2.000770E+1	9.051607E-6	0.000000E+0
1.500000E+1	2.000762E+1	9.229266E-6	0.000000E+0
1.520000E+1	2.000762E+1	9.406203E-6	0.000000E+0
1.540000E+1	2.000762E+1	9.580926E-6	0.000000E+0
1.560000E+1	2.000711E+1	9.754317E-6	0.000000E+0
1.580000E+1	2.000711E+1	9.928188E-6	0.000000E+0
1.600000E+1	2.000700E+1	1.010201E-5	0.000000E+0
END