IV MEASUREMENT
:start
2017-02-24 22:35:47
:stop
2017-02-24 22:42:14
:device
M200Y_06_HPKTS_2_MOSFET
:tester
Ioannis
:atmosphere
Air
:environment
Probe Station
:Instruments
VI Kei6487,CV AgE4980A,GI NM,T Kei2700
:Comment
circular, nMOSFET, Ids vs Vgate, Vback=-8.9976V,Vds=0.05V, Bef.irrad., precision meas. of Vback
 power lower < 1mW, probe station, wait. time 0 sec,after gluing
Annealing time [min]:
0@0
:temperature [C]
19.964633
:start,stop voltage [V] & number of points
-6.000000,16.000000,111
:Voltage increment and increment speed
1.000000,0.500000
:polarity and ramp mode
negative,0
:Current meter range
Auto
:Averaging (int,ext,NPLC,Median Rank)
3,5
3.000000
3
:legend
bias [V],T[C],Current[Amp],Guard Current[Amp]
BEGIN
-6.000000E+0	1.996824E+1	-3.370901E-11	0.000000E+0
-5.800000E+0	1.996824E+1	-3.433184E-11	0.000000E+0
-5.600000E+0	1.996836E+1	-3.506270E-11	0.000000E+0
-5.400000E+0	1.996836E+1	-3.584675E-11	0.000000E+0
-5.200000E+0	1.996836E+1	-3.667685E-11	0.000000E+0
-5.000000E+0	1.996838E+1	-3.747738E-11	0.000000E+0
-4.800000E+0	1.996838E+1	-3.828264E-11	0.000000E+0
-4.600000E+0	1.996774E+1	-3.910324E-11	0.000000E+0
-4.400000E+0	1.996774E+1	-3.990929E-11	0.000000E+0
-4.200000E+0	1.996774E+1	-4.079679E-11	0.000000E+0
-4.000000E+0	1.996779E+1	-4.154697E-11	0.000000E+0
-3.800000E+0	1.996779E+1	-4.241001E-11	0.000000E+0
-3.600000E+0	1.996779E+1	-4.327042E-11	0.000000E+0
-3.400000E+0	1.996775E+1	-4.415609E-11	0.000000E+0
-3.200000E+0	1.996775E+1	-4.502132E-11	0.000000E+0
-3.000000E+0	1.996775E+1	-4.583082E-11	0.000000E+0
-2.800000E+0	1.996678E+1	-4.668213E-11	0.000000E+0
-2.600000E+0	1.996678E+1	-4.747518E-11	0.000000E+0
-2.400000E+0	1.996741E+1	-4.802545E-11	0.000000E+0
-2.200000E+0	1.996741E+1	-4.827560E-11	0.000000E+0
-2.000000E+0	1.996741E+1	-4.846383E-11	0.000000E+0
-1.800000E+0	1.996736E+1	-4.855296E-11	0.000000E+0
-1.600000E+0	1.996736E+1	-4.860450E-11	0.000000E+0
-1.400000E+0	1.996736E+1	-4.867487E-11	0.000000E+0
-1.200000E+0	1.996782E+1	-4.871217E-11	0.000000E+0
-1.000000E+0	1.996782E+1	-4.880899E-11	0.000000E+0
-8.000000E-1	1.996722E+1	-4.882980E-11	0.000000E+0
-6.000000E-1	1.996722E+1	-4.888201E-11	0.000000E+0
-4.000000E-1	1.996722E+1	-4.892504E-11	0.000000E+0
-2.000000E-1	1.996700E+1	-4.885457E-11	0.000000E+0
3.053113E-15	1.996700E+1	-4.886269E-11	0.000000E+0
2.000000E-1	1.996700E+1	-4.879706E-11	0.000000E+0
4.000000E-1	1.996659E+1	-4.882693E-11	0.000000E+0
6.000000E-1	1.996659E+1	-4.881894E-11	0.000000E+0
8.000000E-1	1.996659E+1	-4.879057E-11	0.000000E+0
1.000000E+0	1.996660E+1	-4.884615E-11	0.000000E+0
1.200000E+0	1.996660E+1	-4.880168E-11	0.000000E+0
1.400000E+0	1.996637E+1	-4.874933E-11	0.000000E+0
1.600000E+0	1.996637E+1	-4.864027E-11	0.000000E+0
1.800000E+0	1.996637E+1	-4.869554E-11	0.000000E+0
2.000000E+0	1.996579E+1	-4.867516E-11	0.000000E+0
2.200000E+0	1.996579E+1	-4.865261E-11	0.000000E+0
2.400000E+0	1.996579E+1	-4.850665E-11	0.000000E+0
2.600000E+0	1.996508E+1	-4.841462E-11	0.000000E+0
2.800000E+0	1.996508E+1	-4.834812E-11	0.000000E+0
3.000000E+0	1.996494E+1	-4.831193E-11	0.000000E+0
3.200000E+0	1.996494E+1	-4.827854E-11	0.000000E+0
3.400000E+0	1.996494E+1	-4.827179E-11	0.000000E+0
3.600000E+0	1.996580E+1	-4.815743E-11	0.000000E+0
3.800000E+0	1.996580E+1	-4.808019E-11	0.000000E+0
4.000000E+0	1.996580E+1	-4.801279E-11	0.000000E+0
4.200000E+0	1.996492E+1	-4.787238E-11	0.000000E+0
4.400000E+0	1.996492E+1	-4.777255E-11	0.000000E+0
4.600000E+0	1.996492E+1	-4.762982E-11	0.000000E+0
4.800000E+0	1.996505E+1	-4.753320E-11	0.000000E+0
5.000000E+0	1.996505E+1	-4.738658E-11	0.000000E+0
5.200000E+0	1.996511E+1	-4.723786E-11	0.000000E+0
5.400000E+0	1.996511E+1	-4.529059E-11	0.000000E+0
5.600000E+0	1.996511E+1	6.713618E-10	0.000000E+0
5.800000E+0	1.996506E+1	3.924528E-8	0.000000E+0
6.000000E+0	1.996506E+1	1.703706E-7	0.000000E+0
6.200000E+0	1.996506E+1	3.519969E-7	0.000000E+0
6.400000E+0	1.996448E+1	5.520311E-7	0.000000E+0
6.600000E+0	1.996448E+1	7.595119E-7	0.000000E+0
6.800000E+0	1.996368E+1	9.703938E-7	0.000000E+0
7.000000E+0	1.996368E+1	1.183388E-6	0.000000E+0
7.200000E+0	1.996368E+1	1.396958E-6	0.000000E+0
7.400000E+0	1.996354E+1	1.610323E-6	0.000000E+0
7.600000E+0	1.996354E+1	1.823967E-6	0.000000E+0
7.800000E+0	1.996354E+1	2.037018E-6	0.000000E+0
8.000000E+0	1.996360E+1	2.250284E-6	0.000000E+0
8.200000E+0	1.996360E+1	2.462643E-6	0.000000E+0
8.400000E+0	1.996313E+1	2.673327E-6	0.000000E+0
8.600000E+0	1.996313E+1	2.883336E-6	0.000000E+0
8.800000E+0	1.996313E+1	3.092454E-6	0.000000E+0
9.000000E+0	1.996300E+1	3.300151E-6	0.000000E+0
9.200000E+0	1.996300E+1	3.507118E-6	0.000000E+0
9.400000E+0	1.996300E+1	3.712550E-6	0.000000E+0
9.600000E+0	1.996263E+1	3.917072E-6	0.000000E+0
9.800000E+0	1.996263E+1	4.121097E-6	0.000000E+0
1.000000E+1	1.996263E+1	4.323206E-6	0.000000E+0
1.020000E+1	1.996203E+1	4.524326E-6	0.000000E+0
1.040000E+1	1.996203E+1	4.724603E-6	0.000000E+0
1.060000E+1	1.996189E+1	4.923557E-6	0.000000E+0
1.080000E+1	1.996189E+1	5.120476E-6	0.000000E+0
1.100000E+1	1.996189E+1	5.317083E-6	0.000000E+0
1.120000E+1	1.996223E+1	5.512507E-6	0.000000E+0
1.140000E+1	1.996223E+1	5.707474E-6	0.000000E+0
1.160000E+1	1.996223E+1	5.900636E-6	0.000000E+0
1.180000E+1	1.996173E+1	6.090609E-6	0.000000E+0
1.200000E+1	1.996173E+1	6.284178E-6	0.000000E+0
1.220000E+1	1.996185E+1	6.473992E-6	0.000000E+0
1.240000E+1	1.996185E+1	6.663564E-6	0.000000E+0
1.260000E+1	1.996185E+1	6.858376E-6	0.000000E+0
1.280000E+1	1.996129E+1	7.047944E-6	0.000000E+0
1.300000E+1	1.996129E+1	7.234114E-6	0.000000E+0
1.320000E+1	1.996129E+1	7.420092E-6	0.000000E+0
1.340000E+1	1.996121E+1	7.604350E-6	0.000000E+0
1.360000E+1	1.996121E+1	7.787592E-6	0.000000E+0
1.380000E+1	1.996121E+1	7.971094E-6	0.000000E+0
1.400000E+1	1.996050E+1	8.153385E-6	0.000000E+0
1.420000E+1	1.996050E+1	8.331334E-6	0.000000E+0
1.440000E+1	1.996033E+1	8.513525E-6	0.000000E+0
1.460000E+1	1.996033E+1	8.691824E-6	0.000000E+0
1.480000E+1	1.996033E+1	8.870012E-6	0.000000E+0
1.500000E+1	1.996085E+1	9.047830E-6	0.000000E+0
1.520000E+1	1.996085E+1	9.225113E-6	0.000000E+0
1.540000E+1	1.996085E+1	9.399698E-6	0.000000E+0
1.560000E+1	1.996056E+1	9.575289E-6	0.000000E+0
1.580000E+1	1.996056E+1	9.749456E-6	0.000000E+0
1.600000E+1	1.996009E+1	9.922581E-6	0.000000E+0
END