IV MEASUREMENT
:start
2017-02-24 22:54:04
:stop
2017-02-24 23:00:30
:device
M200Y_06_HPKTS_2_MOSFET
:tester
Ioannis
:atmosphere
Air
:environment
Probe Station
:Instruments
VI Kei6487,CV AgE4980A,GI NM,T Kei2700
:Comment
circular, nMOSFET, Ids vs Vgate, Vback=-15.9988V,Vds=0.05V, Bef.irrad., precision meas. of Vback
 power lower < 1mW, probe station, wait. time 0 sec,after gluing
Annealing time [min]:
0@0
:temperature [C]
19.940204
:start,stop voltage [V] & number of points
-6.000000,16.000000,111
:Voltage increment and increment speed
1.000000,0.500000
:polarity and ramp mode
negative,0
:Current meter range
Auto
:Averaging (int,ext,NPLC,Median Rank)
3,5
3.000000
3
:legend
bias [V],T[C],Current[Amp],Guard Current[Amp]
BEGIN
-6.000000E+0	1.994332E+1	-5.013383E-11	0.000000E+0
-5.800000E+0	1.994332E+1	-5.013184E-11	0.000000E+0
-5.600000E+0	1.994298E+1	-5.017114E-11	0.000000E+0
-5.400000E+0	1.994298E+1	-5.009324E-11	0.000000E+0
-5.200000E+0	1.994298E+1	-5.007192E-11	0.000000E+0
-5.000000E+0	1.994356E+1	-5.013881E-11	0.000000E+0
-4.800000E+0	1.994356E+1	-5.013095E-11	0.000000E+0
-4.600000E+0	1.994283E+1	-5.013441E-11	0.000000E+0
-4.400000E+0	1.994283E+1	-5.014929E-11	0.000000E+0
-4.200000E+0	1.994283E+1	-5.020769E-11	0.000000E+0
-4.000000E+0	1.994365E+1	-5.016524E-11	0.000000E+0
-3.800000E+0	1.994365E+1	-5.019690E-11	0.000000E+0
-3.600000E+0	1.994365E+1	-5.018095E-11	0.000000E+0
-3.400000E+0	1.994261E+1	-5.016491E-11	0.000000E+0
-3.200000E+0	1.994261E+1	-5.016124E-11	0.000000E+0
-3.000000E+0	1.994261E+1	-5.014520E-11	0.000000E+0
-2.800000E+0	1.994303E+1	-5.011956E-11	0.000000E+0
-2.600000E+0	1.994303E+1	-5.008314E-11	0.000000E+0
-2.400000E+0	1.994235E+1	-5.008062E-11	0.000000E+0
-2.200000E+0	1.994235E+1	-5.006733E-11	0.000000E+0
-2.000000E+0	1.994235E+1	-5.006032E-11	0.000000E+0
-1.800000E+0	1.994238E+1	-5.004326E-11	0.000000E+0
-1.600000E+0	1.994238E+1	-5.002923E-11	0.000000E+0
-1.400000E+0	1.994238E+1	-5.003516E-11	0.000000E+0
-1.200000E+0	1.994202E+1	-4.996046E-11	0.000000E+0
-1.000000E+0	1.994202E+1	-4.990504E-11	0.000000E+0
-8.000000E-1	1.994205E+1	-4.987743E-11	0.000000E+0
-6.000000E-1	1.994205E+1	-4.984976E-11	0.000000E+0
-4.000000E-1	1.994205E+1	-4.981036E-11	0.000000E+0
-2.000000E-1	1.994160E+1	-4.978394E-11	0.000000E+0
3.053113E-15	1.994160E+1	-4.973151E-11	0.000000E+0
2.000000E-1	1.994160E+1	-4.975002E-11	0.000000E+0
4.000000E-1	1.994172E+1	-4.968573E-11	0.000000E+0
6.000000E-1	1.994172E+1	-4.965737E-11	0.000000E+0
8.000000E-1	1.994172E+1	-4.960633E-11	0.000000E+0
1.000000E+0	1.994223E+1	-4.953910E-11	0.000000E+0
1.200000E+0	1.994223E+1	-4.951906E-11	0.000000E+0
1.400000E+0	1.994109E+1	-4.949400E-11	0.000000E+0
1.600000E+0	1.994109E+1	-4.939532E-11	0.000000E+0
1.800000E+0	1.994109E+1	-4.937081E-11	0.000000E+0
2.000000E+0	1.994136E+1	-4.937858E-11	0.000000E+0
2.200000E+0	1.994136E+1	-4.929318E-11	0.000000E+0
2.400000E+0	1.994136E+1	-4.919622E-11	0.000000E+0
2.600000E+0	1.994208E+1	-4.911707E-11	0.000000E+0
2.800000E+0	1.994208E+1	-4.906214E-11	0.000000E+0
3.000000E+0	1.994117E+1	-4.895495E-11	0.000000E+0
3.200000E+0	1.994117E+1	-4.895881E-11	0.000000E+0
3.400000E+0	1.994117E+1	-4.881706E-11	0.000000E+0
3.600000E+0	1.994105E+1	-4.856818E-11	0.000000E+0
3.800000E+0	1.994105E+1	-4.859046E-11	0.000000E+0
4.000000E+0	1.994105E+1	-4.844152E-11	0.000000E+0
4.200000E+0	1.994019E+1	-4.835113E-11	0.000000E+0
4.400000E+0	1.994019E+1	-4.814703E-11	0.000000E+0
4.600000E+0	1.994019E+1	-4.807435E-11	0.000000E+0
4.800000E+0	1.994033E+1	-4.788187E-11	0.000000E+0
5.000000E+0	1.994033E+1	-4.778485E-11	0.000000E+0
5.200000E+0	1.994002E+1	-4.767068E-11	0.000000E+0
5.400000E+0	1.994002E+1	-4.737765E-11	0.000000E+0
5.600000E+0	1.994002E+1	-4.600600E-11	0.000000E+0
5.800000E+0	1.993998E+1	4.474592E-10	0.000000E+0
6.000000E+0	1.993998E+1	3.422598E-8	0.000000E+0
6.200000E+0	1.993998E+1	1.606953E-7	0.000000E+0
6.400000E+0	1.993926E+1	3.404863E-7	0.000000E+0
6.600000E+0	1.993926E+1	5.393093E-7	0.000000E+0
6.800000E+0	1.993928E+1	7.455523E-7	0.000000E+0
7.000000E+0	1.993928E+1	9.557790E-7	0.000000E+0
7.200000E+0	1.993928E+1	1.167472E-6	0.000000E+0
7.400000E+0	1.993980E+1	1.379964E-6	0.000000E+0
7.600000E+0	1.993980E+1	1.593290E-6	0.000000E+0
7.800000E+0	1.993980E+1	1.805918E-6	0.000000E+0
8.000000E+0	1.993910E+1	2.018406E-6	0.000000E+0
8.200000E+0	1.993910E+1	2.230824E-6	0.000000E+0
8.400000E+0	1.993898E+1	2.442047E-6	0.000000E+0
8.600000E+0	1.993898E+1	2.652350E-6	0.000000E+0
8.800000E+0	1.993898E+1	2.861791E-6	0.000000E+0
9.000000E+0	1.993907E+1	3.069727E-6	0.000000E+0
9.200000E+0	1.993907E+1	3.276775E-6	0.000000E+0
9.400000E+0	1.993907E+1	3.482582E-6	0.000000E+0
9.600000E+0	1.993829E+1	3.687302E-6	0.000000E+0
9.800000E+0	1.993829E+1	3.891608E-6	0.000000E+0
1.000000E+1	1.993917E+1	4.094157E-6	0.000000E+0
1.020000E+1	1.993917E+1	4.296005E-6	0.000000E+0
1.040000E+1	1.993917E+1	4.496984E-6	0.000000E+0
1.060000E+1	1.993870E+1	4.696382E-6	0.000000E+0
1.080000E+1	1.993870E+1	4.894235E-6	0.000000E+0
1.100000E+1	1.993870E+1	5.091517E-6	0.000000E+0
1.120000E+1	1.993809E+1	5.287368E-6	0.000000E+0
1.140000E+1	1.993809E+1	5.482237E-6	0.000000E+0
1.160000E+1	1.993809E+1	5.675716E-6	0.000000E+0
1.180000E+1	1.993839E+1	5.868697E-6	0.000000E+0
1.200000E+1	1.993839E+1	6.061421E-6	0.000000E+0
1.220000E+1	1.993789E+1	6.250253E-6	0.000000E+0
1.240000E+1	1.993789E+1	6.440280E-6	0.000000E+0
1.260000E+1	1.993789E+1	6.636571E-6	0.000000E+0
1.280000E+1	1.993765E+1	6.826672E-6	0.000000E+0
1.300000E+1	1.993765E+1	7.013887E-6	0.000000E+0
1.320000E+1	1.993765E+1	7.199678E-6	0.000000E+0
1.340000E+1	1.993735E+1	7.384390E-6	0.000000E+0
1.360000E+1	1.993735E+1	7.568729E-6	0.000000E+0
1.380000E+1	1.993735E+1	7.751901E-6	0.000000E+0
1.400000E+1	1.993729E+1	7.933765E-6	0.000000E+0
1.420000E+1	1.993729E+1	8.114351E-6	0.000000E+0
1.440000E+1	1.993653E+1	8.293878E-6	0.000000E+0
1.460000E+1	1.993653E+1	8.473255E-6	0.000000E+0
1.480000E+1	1.993653E+1	8.651131E-6	0.000000E+0
1.500000E+1	1.993613E+1	8.830503E-6	0.000000E+0
1.520000E+1	1.993613E+1	9.007713E-6	0.000000E+0
1.540000E+1	1.993613E+1	9.183304E-6	0.000000E+0
1.560000E+1	1.993619E+1	9.357777E-6	0.000000E+0
1.580000E+1	1.993619E+1	9.532047E-6	0.000000E+0
1.600000E+1	1.993546E+1	9.705835E-6	0.000000E+0
END