IV MEASUREMENT
:start
2017-02-25 00:02:10
:stop
2017-02-25 00:08:35
:device
M200Y_06_HPKTS_2_MOSFET
:tester
Ioannis
:atmosphere
Air
:environment
Probe Station
:Instruments
VI Kei6487,CV AgE4980A,GI NM,T Kei2700
:Comment
circular, nMOSFET, Ids vs Vgate, Vback=0.50035V,Vds=0.05V, Bef.irrad., precision meas. of Vback
 power lower < 1mW, probe station, wait. time 0 sec,after gluing
Annealing time [min]:
0@0
:temperature [C]
19.879638
:start,stop voltage [V] & number of points
-6.000000,16.000000,111
:Voltage increment and increment speed
1.000000,0.500000
:polarity and ramp mode
negative,0
:Current meter range
Auto
:Averaging (int,ext,NPLC,Median Rank)
3,5
3.000000
3
:legend
bias [V],T[C],Current[Amp],Guard Current[Amp]
BEGIN
-6.000000E+0	1.988164E+1	3.727235E-5	0.000000E+0
-5.800000E+0	1.988164E+1	3.727398E-5	0.000000E+0
-5.600000E+0	1.988109E+1	3.727642E-5	0.000000E+0
-5.400000E+0	1.988109E+1	3.727622E-5	0.000000E+0
-5.200000E+0	1.988109E+1	3.727684E-5	0.000000E+0
-5.000000E+0	1.988085E+1	3.727810E-5	0.000000E+0
-4.800000E+0	1.988085E+1	3.727832E-5	0.000000E+0
-4.600000E+0	1.988071E+1	3.727866E-5	0.000000E+0
-4.400000E+0	1.988071E+1	3.727932E-5	0.000000E+0
-4.200000E+0	1.988071E+1	3.727675E-5	0.000000E+0
-4.000000E+0	1.988055E+1	3.727582E-5	0.000000E+0
-3.800000E+0	1.988055E+1	3.727317E-5	0.000000E+0
-3.600000E+0	1.988055E+1	3.727164E-5	0.000000E+0
-3.400000E+0	1.988087E+1	3.726533E-5	0.000000E+0
-3.200000E+0	1.988087E+1	3.725731E-5	0.000000E+0
-3.000000E+0	1.988087E+1	3.724841E-5	0.000000E+0
-2.800000E+0	1.988075E+1	3.723835E-5	0.000000E+0
-2.600000E+0	1.988075E+1	3.722486E-5	0.000000E+0
-2.400000E+0	1.988070E+1	3.720776E-5	0.000000E+0
-2.200000E+0	1.988070E+1	3.718794E-5	0.000000E+0
-2.000000E+0	1.988070E+1	3.716274E-5	0.000000E+0
-1.800000E+0	1.987987E+1	3.713309E-5	0.000000E+0
-1.600000E+0	1.987987E+1	3.709522E-5	0.000000E+0
-1.400000E+0	1.987987E+1	3.704884E-5	0.000000E+0
-1.200000E+0	1.988052E+1	3.698700E-5	0.000000E+0
-1.000000E+0	1.988052E+1	3.692015E-5	0.000000E+0
-8.000000E-1	1.988065E+1	3.685283E-5	0.000000E+0
-6.000000E-1	1.988065E+1	3.681646E-5	0.000000E+0
-4.000000E-1	1.988065E+1	3.684217E-5	0.000000E+0
-2.000000E-1	1.988002E+1	3.695356E-5	0.000000E+0
3.053113E-15	1.988002E+1	3.713391E-5	0.000000E+0
2.000000E-1	1.988002E+1	3.738964E-5	0.000000E+0
4.000000E-1	1.988027E+1	3.769347E-5	0.000000E+0
6.000000E-1	1.988027E+1	3.802382E-5	0.000000E+0
8.000000E-1	1.988027E+1	3.836413E-5	0.000000E+0
1.000000E+0	1.988053E+1	3.871245E-5	0.000000E+0
1.200000E+0	1.988053E+1	3.906201E-5	0.000000E+0
1.400000E+0	1.988016E+1	3.940679E-5	0.000000E+0
1.600000E+0	1.988016E+1	3.975050E-5	0.000000E+0
1.800000E+0	1.988016E+1	4.009059E-5	0.000000E+0
2.000000E+0	1.987972E+1	4.042415E-5	0.000000E+0
2.200000E+0	1.987972E+1	4.075534E-5	0.000000E+0
2.400000E+0	1.987972E+1	4.108134E-5	0.000000E+0
2.600000E+0	1.987982E+1	4.140213E-5	0.000000E+0
2.800000E+0	1.987982E+1	4.172011E-5	0.000000E+0
3.000000E+0	1.987982E+1	4.203213E-5	0.000000E+0
3.200000E+0	1.987958E+1	4.234128E-5	0.000000E+0
3.400000E+0	1.987958E+1	4.264510E-5	0.000000E+0
3.600000E+0	1.987972E+1	4.294604E-5	0.000000E+0
3.800000E+0	1.987972E+1	4.324192E-5	0.000000E+0
4.000000E+0	1.987972E+1	4.353490E-5	0.000000E+0
4.200000E+0	1.987965E+1	4.382260E-5	0.000000E+0
4.400000E+0	1.987965E+1	4.410788E-5	0.000000E+0
4.600000E+0	1.987965E+1	4.438666E-5	0.000000E+0
4.800000E+0	1.988012E+1	4.466497E-5	0.000000E+0
5.000000E+0	1.988012E+1	4.494072E-5	0.000000E+0
5.200000E+0	1.988013E+1	4.522293E-5	0.000000E+0
5.400000E+0	1.988013E+1	4.549433E-5	0.000000E+0
5.600000E+0	1.988013E+1	4.575993E-5	0.000000E+0
5.800000E+0	1.987991E+1	4.602312E-5	0.000000E+0
6.000000E+0	1.987991E+1	4.628331E-5	0.000000E+0
6.200000E+0	1.987991E+1	4.654332E-5	0.000000E+0
6.400000E+0	1.987964E+1	4.679604E-5	0.000000E+0
6.600000E+0	1.987964E+1	4.705109E-5	0.000000E+0
6.800000E+0	1.987964E+1	4.730240E-5	0.000000E+0
7.000000E+0	1.987961E+1	4.754869E-5	0.000000E+0
7.200000E+0	1.987961E+1	4.779509E-5	0.000000E+0
7.400000E+0	1.987971E+1	4.803871E-5	0.000000E+0
7.600000E+0	1.987971E+1	4.828020E-5	0.000000E+0
7.800000E+0	1.987971E+1	4.852050E-5	0.000000E+0
8.000000E+0	1.987927E+1	4.875534E-5	0.000000E+0
8.200000E+0	1.987927E+1	4.898823E-5	0.000000E+0
8.400000E+0	1.987927E+1	4.922209E-5	0.000000E+0
8.600000E+0	1.987939E+1	4.945501E-5	0.000000E+0
8.800000E+0	1.987939E+1	4.968491E-5	0.000000E+0
9.000000E+0	1.987939E+1	4.991503E-5	0.000000E+0
9.200000E+0	1.987914E+1	5.014102E-5	0.000000E+0
9.400000E+0	1.987914E+1	5.036570E-5	0.000000E+0
9.600000E+0	1.987871E+1	5.058620E-5	0.000000E+0
9.800000E+0	1.987871E+1	5.080698E-5	0.000000E+0
1.000000E+1	1.987871E+1	5.102603E-5	0.000000E+0
1.020000E+1	1.987875E+1	5.124283E-5	0.000000E+0
1.040000E+1	1.987875E+1	5.145969E-5	0.000000E+0
1.060000E+1	1.987875E+1	5.167325E-5	0.000000E+0
1.080000E+1	1.987879E+1	5.188685E-5	0.000000E+0
1.100000E+1	1.987879E+1	5.209959E-5	0.000000E+0
1.120000E+1	1.987913E+1	5.231068E-5	0.000000E+0
1.140000E+1	1.987913E+1	5.251903E-5	0.000000E+0
1.160000E+1	1.987913E+1	5.272649E-5	0.000000E+0
1.180000E+1	1.987844E+1	5.293310E-5	0.000000E+0
1.200000E+1	1.987844E+1	5.313685E-5	0.000000E+0
1.220000E+1	1.987844E+1	5.333973E-5	0.000000E+0
1.240000E+1	1.987860E+1	5.354443E-5	0.000000E+0
1.260000E+1	1.987860E+1	5.375353E-5	0.000000E+0
1.280000E+1	1.987860E+1	5.395465E-5	0.000000E+0
1.300000E+1	1.987807E+1	5.415203E-5	0.000000E+0
1.320000E+1	1.987807E+1	5.434847E-5	0.000000E+0
1.340000E+1	1.987796E+1	5.454450E-5	0.000000E+0
1.360000E+1	1.987796E+1	5.474254E-5	0.000000E+0
1.380000E+1	1.987796E+1	5.493853E-5	0.000000E+0
1.400000E+1	1.987838E+1	5.513279E-5	0.000000E+0
1.420000E+1	1.987838E+1	5.532366E-5	0.000000E+0
1.440000E+1	1.987838E+1	5.551658E-5	0.000000E+0
1.460000E+1	1.987815E+1	5.570611E-5	0.000000E+0
1.480000E+1	1.987815E+1	5.589165E-5	0.000000E+0
1.500000E+1	1.987815E+1	5.608120E-5	0.000000E+0
1.520000E+1	1.987802E+1	5.626873E-5	0.000000E+0
1.540000E+1	1.987802E+1	5.645425E-5	0.000000E+0
1.560000E+1	1.987821E+1	5.664016E-5	0.000000E+0
1.580000E+1	1.987821E+1	5.682425E-5	0.000000E+0
1.600000E+1	1.987821E+1	5.700663E-5	0.000000E+0
END