IV MEASUREMENT
:start
2017-02-24 17:38:21
:stop
2017-02-24 17:44:46
:device
M200P_04_HPKTS_1_MOSFET
:tester
Ioannis
:atmosphere
Air
:environment
Probe Station
:Instruments
VI Kei6487,CV AgE4980A,GI NM,T Kei2700
:Comment
circular, nMOSFET, Ids vs Vgate, Vback=0.40033V,Vds=0.05V, Bef.irrad., precision meas. of Vback
 power lower < 1mW, probe station, wait. time 0 sec,after gluing
Annealing time [min]:
0@0
:temperature [C]
20.280892
:start,stop voltage [V] & number of points
-6.000000,16.000000,111
:Voltage increment and increment speed
1.000000,0.500000
:polarity and ramp mode
negative,0
:Current meter range
Auto
:Averaging (int,ext,NPLC,Median Rank)
3,5
3.000000
3
:legend
bias [V],T[C],Current[Amp],Guard Current[Amp]
BEGIN
-6.000000E+0	2.028524E+1	4.364494E-6	0.000000E+0
-5.800000E+0	2.028524E+1	4.364581E-6	0.000000E+0
-5.600000E+0	2.028441E+1	4.364656E-6	0.000000E+0
-5.400000E+0	2.028441E+1	4.364695E-6	0.000000E+0
-5.200000E+0	2.028441E+1	4.364693E-6	0.000000E+0
-5.000000E+0	2.028413E+1	4.364818E-6	0.000000E+0
-4.800000E+0	2.028413E+1	4.364876E-6	0.000000E+0
-4.600000E+0	2.028437E+1	4.364697E-6	0.000000E+0
-4.400000E+0	2.028437E+1	4.365107E-6	0.000000E+0
-4.200000E+0	2.028437E+1	4.365635E-6	0.000000E+0
-4.000000E+0	2.028492E+1	4.365769E-6	0.000000E+0
-3.800000E+0	2.028492E+1	4.366273E-6	0.000000E+0
-3.600000E+0	2.028492E+1	4.366689E-6	0.000000E+0
-3.400000E+0	2.028461E+1	4.367387E-6	0.000000E+0
-3.200000E+0	2.028461E+1	4.368536E-6	0.000000E+0
-3.000000E+0	2.028461E+1	4.370310E-6	0.000000E+0
-2.800000E+0	2.028396E+1	4.373573E-6	0.000000E+0
-2.600000E+0	2.028396E+1	4.378817E-6	0.000000E+0
-2.400000E+0	2.028351E+1	4.389340E-6	0.000000E+0
-2.200000E+0	2.028351E+1	4.416072E-6	0.000000E+0
-2.000000E+0	2.028351E+1	4.497108E-6	0.000000E+0
-1.800000E+0	2.028380E+1	4.688563E-6	0.000000E+0
-1.600000E+0	2.028380E+1	4.970720E-6	0.000000E+0
-1.400000E+0	2.028380E+1	5.288744E-6	0.000000E+0
-1.200000E+0	2.028323E+1	5.614353E-6	0.000000E+0
-1.000000E+0	2.028323E+1	5.939734E-6	0.000000E+0
-8.000000E-1	2.028350E+1	6.261364E-6	0.000000E+0
-6.000000E-1	2.028350E+1	6.578929E-6	0.000000E+0
-4.000000E-1	2.028350E+1	6.891698E-6	0.000000E+0
-2.000000E-1	2.028223E+1	7.199359E-6	0.000000E+0
3.053113E-15	2.028223E+1	7.483044E-6	0.000000E+0
2.000000E-1	2.028223E+1	7.777643E-6	0.000000E+0
4.000000E-1	2.028205E+1	8.071551E-6	0.000000E+0
6.000000E-1	2.028205E+1	8.361294E-6	0.000000E+0
8.000000E-1	2.028205E+1	8.647424E-6	0.000000E+0
1.000000E+0	2.028189E+1	8.929261E-6	0.000000E+0
1.200000E+0	2.028189E+1	9.207485E-6	0.000000E+0
1.400000E+0	2.028131E+1	9.481948E-6	0.000000E+0
1.600000E+0	2.028131E+1	9.752642E-6	0.000000E+0
1.800000E+0	2.028131E+1	1.001920E-5	0.000000E+0
2.000000E+0	2.028185E+1	1.028234E-5	0.000000E+0
2.200000E+0	2.028185E+1	1.054382E-5	0.000000E+0
2.400000E+0	2.028185E+1	1.080328E-5	0.000000E+0
2.600000E+0	2.028193E+1	1.105856E-5	0.000000E+0
2.800000E+0	2.028193E+1	1.131110E-5	0.000000E+0
3.000000E+0	2.028193E+1	1.156087E-5	0.000000E+0
3.200000E+0	2.028184E+1	1.180867E-5	0.000000E+0
3.400000E+0	2.028184E+1	1.205244E-5	0.000000E+0
3.600000E+0	2.028083E+1	1.229574E-5	0.000000E+0
3.800000E+0	2.028083E+1	1.253575E-5	0.000000E+0
4.000000E+0	2.028083E+1	1.277360E-5	0.000000E+0
4.200000E+0	2.028158E+1	1.300897E-5	0.000000E+0
4.400000E+0	2.028158E+1	1.324330E-5	0.000000E+0
4.600000E+0	2.028158E+1	1.347409E-5	0.000000E+0
4.800000E+0	2.028108E+1	1.370388E-5	0.000000E+0
5.000000E+0	2.028108E+1	1.393120E-5	0.000000E+0
5.200000E+0	2.028080E+1	1.416480E-5	0.000000E+0
5.400000E+0	2.028080E+1	1.439011E-5	0.000000E+0
5.600000E+0	2.028080E+1	1.461115E-5	0.000000E+0
5.800000E+0	2.028102E+1	1.483208E-5	0.000000E+0
6.000000E+0	2.028102E+1	1.504915E-5	0.000000E+0
6.200000E+0	2.028102E+1	1.526481E-5	0.000000E+0
6.400000E+0	2.028081E+1	1.547777E-5	0.000000E+0
6.600000E+0	2.028081E+1	1.569007E-5	0.000000E+0
6.800000E+0	2.028081E+1	1.590032E-5	0.000000E+0
7.000000E+0	2.028050E+1	1.610996E-5	0.000000E+0
7.200000E+0	2.028050E+1	1.631803E-5	0.000000E+0
7.400000E+0	2.027990E+1	1.652369E-5	0.000000E+0
7.600000E+0	2.027990E+1	1.673028E-5	0.000000E+0
7.800000E+0	2.027990E+1	1.693187E-5	0.000000E+0
8.000000E+0	2.027995E+1	1.713490E-5	0.000000E+0
8.200000E+0	2.027995E+1	1.733651E-5	0.000000E+0
8.400000E+0	2.027995E+1	1.753540E-5	0.000000E+0
8.600000E+0	2.027954E+1	1.773040E-5	0.000000E+0
8.800000E+0	2.027954E+1	1.792746E-5	0.000000E+0
9.000000E+0	2.027954E+1	1.812315E-5	0.000000E+0
9.200000E+0	2.027890E+1	1.831625E-5	0.000000E+0
9.400000E+0	2.027890E+1	1.850698E-5	0.000000E+0
9.600000E+0	2.027961E+1	1.869718E-5	0.000000E+0
9.800000E+0	2.027961E+1	1.888770E-5	0.000000E+0
1.000000E+1	2.027961E+1	1.907585E-5	0.000000E+0
1.020000E+1	2.027896E+1	1.926433E-5	0.000000E+0
1.040000E+1	2.027896E+1	1.945324E-5	0.000000E+0
1.060000E+1	2.027896E+1	1.963728E-5	0.000000E+0
1.080000E+1	2.027869E+1	1.982113E-5	0.000000E+0
1.100000E+1	2.027869E+1	2.000265E-5	0.000000E+0
1.120000E+1	2.027827E+1	2.018473E-5	0.000000E+0
1.140000E+1	2.027827E+1	2.037120E-5	0.000000E+0
1.160000E+1	2.027827E+1	2.054943E-5	0.000000E+0
1.180000E+1	2.027743E+1	2.072598E-5	0.000000E+0
1.200000E+1	2.027743E+1	2.090378E-5	0.000000E+0
1.220000E+1	2.027743E+1	2.108021E-5	0.000000E+0
1.240000E+1	2.027778E+1	2.125563E-5	0.000000E+0
1.260000E+1	2.027778E+1	2.143657E-5	0.000000E+0
1.280000E+1	2.027761E+1	2.161148E-5	0.000000E+0
1.300000E+1	2.027761E+1	2.178703E-5	0.000000E+0
1.320000E+1	2.027761E+1	2.195896E-5	0.000000E+0
1.340000E+1	2.027706E+1	2.212968E-5	0.000000E+0
1.360000E+1	2.027706E+1	2.230009E-5	0.000000E+0
1.380000E+1	2.027706E+1	2.247398E-5	0.000000E+0
1.400000E+1	2.027785E+1	2.263940E-5	0.000000E+0
1.420000E+1	2.027785E+1	2.281164E-5	0.000000E+0
1.440000E+1	2.027785E+1	2.297694E-5	0.000000E+0
1.460000E+1	2.027708E+1	2.314418E-5	0.000000E+0
1.480000E+1	2.027708E+1	2.330732E-5	0.000000E+0
1.500000E+1	2.027700E+1	2.346940E-5	0.000000E+0
1.520000E+1	2.027700E+1	2.363397E-5	0.000000E+0
1.540000E+1	2.027700E+1	2.379583E-5	0.000000E+0
1.560000E+1	2.027672E+1	2.396143E-5	0.000000E+0
1.580000E+1	2.027672E+1	2.412388E-5	0.000000E+0
1.600000E+1	2.027672E+1	2.428676E-5	0.000000E+0
END