IV MEASUREMENT
:start
2017-02-24 15:26:44
:stop
2017-02-24 15:33:10
:device
M200P_04_HPKTS_1_MOSFET
:tester
Ioannis
:atmosphere
Air
:environment
Probe Station
:Instruments
VI Kei6487,CV AgE4980A,GI NM,T Kei2700
:Comment
circular, nMOSFET, Ids vs Vgate, Vback=0,Vds=0.05V, Bef.irrad., precision meas. of Vback
 power lower < 1mW, probe station, wait. time 0 sec,after gluing
Annealing time [min]:
0@0
:temperature [C]
20.415600
:start,stop voltage [V] & number of points
-6.000000,16.000000,111
:Voltage increment and increment speed
1.000000,0.500000
:polarity and ramp mode
negative,0
:Current meter range
Auto
:Averaging (int,ext,NPLC,Median Rank)
3,5
3.000000
3
:legend
bias [V],T[C],Current[Amp],Guard Current[Amp]
BEGIN
-6.000000E+0	2.042113E+1	6.807605E-13	0.000000E+0
-5.800000E+0	2.042113E+1	6.713821E-13	0.000000E+0
-5.600000E+0	2.042016E+1	6.946262E-13	0.000000E+0
-5.400000E+0	2.042016E+1	6.745680E-13	0.000000E+0
-5.200000E+0	2.042016E+1	7.475979E-13	0.000000E+0
-5.000000E+0	2.042031E+1	7.054402E-13	0.000000E+0
-4.800000E+0	2.042031E+1	7.415400E-13	0.000000E+0
-4.600000E+0	2.042015E+1	7.183635E-13	0.000000E+0
-4.400000E+0	2.042015E+1	7.118347E-13	0.000000E+0
-4.200000E+0	2.042015E+1	7.256104E-13	0.000000E+0
-4.000000E+0	2.041979E+1	7.900696E-13	0.000000E+0
-3.800000E+0	2.041979E+1	8.048102E-13	0.000000E+0
-3.600000E+0	2.041979E+1	8.056851E-13	0.000000E+0
-3.400000E+0	2.041933E+1	7.570210E-13	0.000000E+0
-3.200000E+0	2.041933E+1	7.471491E-13	0.000000E+0
-3.000000E+0	2.041933E+1	7.591077E-13	0.000000E+0
-2.800000E+0	2.041903E+1	8.495703E-13	0.000000E+0
-2.600000E+0	2.041903E+1	8.594199E-13	0.000000E+0
-2.400000E+0	2.041887E+1	9.302284E-13	0.000000E+0
-2.200000E+0	2.041887E+1	3.890482E-12	0.000000E+0
-2.000000E+0	2.041887E+1	4.799231E-10	0.000000E+0
-1.800000E+0	2.041867E+1	3.784518E-8	0.000000E+0
-1.600000E+0	2.041867E+1	2.227281E-7	0.000000E+0
-1.400000E+0	2.041818E+1	4.946585E-7	0.000000E+0
-1.200000E+0	2.041818E+1	7.918275E-7	0.000000E+0
-1.000000E+0	2.041818E+1	1.095658E-6	0.000000E+0
-8.000000E-1	2.041792E+1	1.400195E-6	0.000000E+0
-6.000000E-1	2.041792E+1	1.703760E-6	0.000000E+0
-4.000000E-1	2.041792E+1	2.004697E-6	0.000000E+0
-2.000000E-1	2.041781E+1	2.302750E-6	0.000000E+0
3.053113E-15	2.041781E+1	2.577835E-6	0.000000E+0
2.000000E-1	2.041781E+1	2.863878E-6	0.000000E+0
4.000000E-1	2.041764E+1	3.150998E-6	0.000000E+0
6.000000E-1	2.041764E+1	3.434808E-6	0.000000E+0
8.000000E-1	2.041719E+1	3.715448E-6	0.000000E+0
1.000000E+0	2.041719E+1	3.992559E-6	0.000000E+0
1.200000E+0	2.041719E+1	4.266417E-6	0.000000E+0
1.400000E+0	2.041717E+1	4.536167E-6	0.000000E+0
1.600000E+0	2.041717E+1	4.803262E-6	0.000000E+0
1.800000E+0	2.041717E+1	5.068727E-6	0.000000E+0
2.000000E+0	2.041705E+1	5.328024E-6	0.000000E+0
2.200000E+0	2.041705E+1	5.586313E-6	0.000000E+0
2.400000E+0	2.041704E+1	5.842431E-6	0.000000E+0
2.600000E+0	2.041704E+1	6.095132E-6	0.000000E+0
2.800000E+0	2.041704E+1	6.345725E-6	0.000000E+0
3.000000E+0	2.041650E+1	6.592999E-6	0.000000E+0
3.200000E+0	2.041650E+1	6.837946E-6	0.000000E+0
3.400000E+0	2.041650E+1	7.081904E-6	0.000000E+0
3.600000E+0	2.041648E+1	7.319328E-6	0.000000E+0
3.800000E+0	2.041648E+1	7.557151E-6	0.000000E+0
4.000000E+0	2.041648E+1	7.795276E-6	0.000000E+0
4.200000E+0	2.041604E+1	8.028463E-6	0.000000E+0
4.400000E+0	2.041604E+1	8.260084E-6	0.000000E+0
4.600000E+0	2.041590E+1	8.489259E-6	0.000000E+0
4.800000E+0	2.041590E+1	8.716111E-6	0.000000E+0
5.000000E+0	2.041590E+1	8.941579E-6	0.000000E+0
5.200000E+0	2.041587E+1	9.173076E-6	0.000000E+0
5.400000E+0	2.041587E+1	9.397569E-6	0.000000E+0
5.600000E+0	2.041587E+1	9.620564E-6	0.000000E+0
5.800000E+0	2.041531E+1	9.837666E-6	0.000000E+0
6.000000E+0	2.041531E+1	1.005429E-5	0.000000E+0
6.200000E+0	2.041531E+1	1.026848E-5	0.000000E+0
6.400000E+0	2.041495E+1	1.048090E-5	0.000000E+0
6.600000E+0	2.041495E+1	1.069226E-5	0.000000E+0
6.800000E+0	2.041520E+1	1.090223E-5	0.000000E+0
7.000000E+0	2.041520E+1	1.111117E-5	0.000000E+0
7.200000E+0	2.041520E+1	1.131767E-5	0.000000E+0
7.400000E+0	2.041460E+1	1.152119E-5	0.000000E+0
7.600000E+0	2.041460E+1	1.172506E-5	0.000000E+0
7.800000E+0	2.041460E+1	1.192748E-5	0.000000E+0
8.000000E+0	2.041418E+1	1.212771E-5	0.000000E+0
8.200000E+0	2.041418E+1	1.232795E-5	0.000000E+0
8.400000E+0	2.041339E+1	1.252619E-5	0.000000E+0
8.600000E+0	2.041339E+1	1.272336E-5	0.000000E+0
8.800000E+0	2.041339E+1	1.291895E-5	0.000000E+0
9.000000E+0	2.041337E+1	1.311310E-5	0.000000E+0
9.200000E+0	2.041337E+1	1.330697E-5	0.000000E+0
9.400000E+0	2.041337E+1	1.349980E-5	0.000000E+0
9.600000E+0	2.041339E+1	1.368840E-5	0.000000E+0
9.800000E+0	2.041339E+1	1.387788E-5	0.000000E+0
1.000000E+1	2.041339E+1	1.406650E-5	0.000000E+0
1.020000E+1	2.041336E+1	1.425311E-5	0.000000E+0
1.040000E+1	2.041336E+1	1.443769E-5	0.000000E+0
1.060000E+1	2.041327E+1	1.462057E-5	0.000000E+0
1.080000E+1	2.041327E+1	1.480488E-5	0.000000E+0
1.100000E+1	2.041327E+1	1.498791E-5	0.000000E+0
1.120000E+1	2.041255E+1	1.517075E-5	0.000000E+0
1.140000E+1	2.041255E+1	1.535139E-5	0.000000E+0
1.160000E+1	2.041255E+1	1.552984E-5	0.000000E+0
1.180000E+1	2.041244E+1	1.570632E-5	0.000000E+0
1.200000E+1	2.041244E+1	1.588375E-5	0.000000E+0
1.220000E+1	2.041244E+1	1.605931E-5	0.000000E+0
1.240000E+1	2.041179E+1	1.623460E-5	0.000000E+0
1.260000E+1	2.041179E+1	1.641552E-5	0.000000E+0
1.280000E+1	2.041173E+1	1.659036E-5	0.000000E+0
1.300000E+1	2.041173E+1	1.676476E-5	0.000000E+0
1.320000E+1	2.041173E+1	1.693613E-5	0.000000E+0
1.340000E+1	2.041163E+1	1.710716E-5	0.000000E+0
1.360000E+1	2.041163E+1	1.727958E-5	0.000000E+0
1.380000E+1	2.041163E+1	1.744802E-5	0.000000E+0
1.400000E+1	2.041121E+1	1.761472E-5	0.000000E+0
1.420000E+1	2.041121E+1	1.778050E-5	0.000000E+0
1.440000E+1	2.041105E+1	1.794595E-5	0.000000E+0
1.460000E+1	2.041105E+1	1.811175E-5	0.000000E+0
1.480000E+1	2.041105E+1	1.827712E-5	0.000000E+0
1.500000E+1	2.041084E+1	1.844123E-5	0.000000E+0
1.520000E+1	2.041084E+1	1.860463E-5	0.000000E+0
1.540000E+1	2.041084E+1	1.876672E-5	0.000000E+0
1.560000E+1	2.040982E+1	1.892883E-5	0.000000E+0
1.580000E+1	2.040982E+1	1.909061E-5	0.000000E+0
1.600000E+1	2.040982E+1	1.925401E-5	0.000000E+0
END