IV MEASUREMENT
:start
2016-10-28 11:40:07
:stop
2016-10-28 11:46:34
:device
M200P_04_HPKTS_1_MOSFET
:tester
Martin
:atmosphere
Air
:environment
Probe Station
:Instruments
VI Kei6487,CV AgE4980A,GI NM,T Kei2700
:Comment
circular, nMOSFET, Ids vs Vgate, Vback= ground,Vds=0.05V, Bef.irrad.
 power lower < 1mW, probe station, wait. time 0 sec,after gluing
Annealing time [min]:
0@0
:temperature [C]
20.146208
:start,stop voltage [V] & number of points
-6.000000,16.000000,111
:Voltage increment and increment speed
1.000000,0.500000
:polarity and ramp mode
negative,0
:Current meter range
Auto
:Averaging (int,ext,NPLC,Median Rank)
3,5
3.000000
3
:legend
bias [V],T[C],Current[Amp],Guard Current[Amp]
BEGIN
-6.000000E+0	2.014621E+1	9.734644E-13	0.000000E+0
-5.800000E+0	2.014589E+1	9.685735E-13	0.000000E+0
-5.600000E+0	2.014589E+1	9.920192E-13	0.000000E+0
-5.400000E+0	2.014589E+1	1.001128E-12	0.000000E+0
-5.200000E+0	2.014630E+1	1.026908E-12	0.000000E+0
-5.000000E+0	2.014630E+1	1.028590E-12	0.000000E+0
-4.800000E+0	2.014630E+1	1.028680E-12	0.000000E+0
-4.600000E+0	2.014578E+1	1.044812E-12	0.000000E+0
-4.400000E+0	2.014578E+1	1.062536E-12	0.000000E+0
-4.200000E+0	2.014578E+1	1.067585E-12	0.000000E+0
-4.000000E+0	2.014645E+1	1.106018E-12	0.000000E+0
-3.800000E+0	2.014645E+1	1.110056E-12	0.000000E+0
-3.600000E+0	2.014611E+1	1.164374E-12	0.000000E+0
-3.400000E+0	2.014611E+1	1.161211E-12	0.000000E+0
-3.200000E+0	2.014611E+1	1.156678E-12	0.000000E+0
-3.000000E+0	2.014593E+1	1.100655E-12	0.000000E+0
-2.800000E+0	2.014593E+1	1.142858E-12	0.000000E+0
-2.600000E+0	2.014593E+1	1.133031E-12	0.000000E+0
-2.400000E+0	2.014540E+1	1.254590E-12	0.000000E+0
-2.200000E+0	2.014540E+1	4.330529E-12	0.000000E+0
-2.000000E+0	2.014540E+1	4.715844E-10	0.000000E+0
-1.800000E+0	2.014568E+1	3.795497E-8	0.000000E+0
-1.600000E+0	2.014568E+1	2.240527E-7	0.000000E+0
-1.400000E+0	2.014539E+1	4.976572E-7	0.000000E+0
-1.200000E+0	2.014539E+1	7.965522E-7	0.000000E+0
-1.000000E+0	2.014539E+1	1.102084E-6	0.000000E+0
-8.000000E-1	2.014572E+1	1.408628E-6	0.000000E+0
-6.000000E-1	2.014572E+1	1.713944E-6	0.000000E+0
-4.000000E-1	2.014583E+1	2.016369E-6	0.000000E+0
-2.000000E-1	2.014583E+1	2.316020E-6	0.000000E+0
3.053113E-15	2.014583E+1	2.593069E-6	0.000000E+0
2.000000E-1	2.014518E+1	2.881182E-6	0.000000E+0
4.000000E-1	2.014518E+1	3.169783E-6	0.000000E+0
6.000000E-1	2.014518E+1	3.454986E-6	0.000000E+0
8.000000E-1	2.014546E+1	3.737792E-6	0.000000E+0
1.000000E+0	2.014546E+1	4.016434E-6	0.000000E+0
1.200000E+0	2.014546E+1	4.292005E-6	0.000000E+0
1.400000E+0	2.014552E+1	4.562971E-6	0.000000E+0
1.600000E+0	2.014552E+1	4.831631E-6	0.000000E+0
1.800000E+0	2.014558E+1	5.097153E-6	0.000000E+0
2.000000E+0	2.014558E+1	5.358779E-6	0.000000E+0
2.200000E+0	2.014558E+1	5.618665E-6	0.000000E+0
2.400000E+0	2.014547E+1	5.876248E-6	0.000000E+0
2.600000E+0	2.014547E+1	6.130324E-6	0.000000E+0
2.800000E+0	2.014547E+1	6.382551E-6	0.000000E+0
3.000000E+0	2.014546E+1	6.631084E-6	0.000000E+0
3.200000E+0	2.014546E+1	6.877312E-6	0.000000E+0
3.400000E+0	2.014582E+1	7.120364E-6	0.000000E+0
3.600000E+0	2.014582E+1	7.360021E-6	0.000000E+0
3.800000E+0	2.014582E+1	7.600387E-6	0.000000E+0
4.000000E+0	2.014567E+1	7.837243E-6	0.000000E+0
4.200000E+0	2.014567E+1	8.072922E-6	0.000000E+0
4.400000E+0	2.014567E+1	8.305772E-6	0.000000E+0
4.600000E+0	2.014549E+1	8.537072E-6	0.000000E+0
4.800000E+0	2.014549E+1	8.765617E-6	0.000000E+0
5.000000E+0	2.014549E+1	8.991697E-6	0.000000E+0
5.200000E+0	2.014552E+1	9.225028E-6	0.000000E+0
5.400000E+0	2.014552E+1	9.451748E-6	0.000000E+0
5.600000E+0	2.014618E+1	9.672989E-6	0.000000E+0
5.800000E+0	2.014618E+1	9.891198E-6	0.000000E+0
6.000000E+0	2.014618E+1	1.010915E-5	0.000000E+0
6.200000E+0	2.014637E+1	1.032424E-5	0.000000E+0
6.400000E+0	2.014637E+1	1.053723E-5	0.000000E+0
6.600000E+0	2.014637E+1	1.074884E-5	0.000000E+0
6.800000E+0	2.014601E+1	1.096071E-5	0.000000E+0
7.000000E+0	2.014601E+1	1.117006E-5	0.000000E+0
7.200000E+0	2.014601E+1	1.137725E-5	0.000000E+0
7.400000E+0	2.014662E+1	1.158324E-5	0.000000E+0
7.600000E+0	2.014662E+1	1.178906E-5	0.000000E+0
7.800000E+0	2.014581E+1	1.199175E-5	0.000000E+0
8.000000E+0	2.014581E+1	1.219482E-5	0.000000E+0
8.200000E+0	2.014581E+1	1.239360E-5	0.000000E+0
8.400000E+0	2.014594E+1	1.259150E-5	0.000000E+0
8.600000E+0	2.014594E+1	1.279001E-5	0.000000E+0
8.800000E+0	2.014594E+1	1.298719E-5	0.000000E+0
9.000000E+0	2.014648E+1	1.318206E-5	0.000000E+0
9.200000E+0	2.014648E+1	1.337550E-5	0.000000E+0
9.400000E+0	2.014613E+1	1.356787E-5	0.000000E+0
9.600000E+0	2.014613E+1	1.375679E-5	0.000000E+0
9.800000E+0	2.014613E+1	1.394587E-5	0.000000E+0
1.000000E+1	2.014601E+1	1.413612E-5	0.000000E+0
1.020000E+1	2.014601E+1	1.432399E-5	0.000000E+0
1.040000E+1	2.014601E+1	1.451209E-5	0.000000E+0
1.060000E+1	2.014690E+1	1.469504E-5	0.000000E+0
1.080000E+1	2.014690E+1	1.488004E-5	0.000000E+0
1.100000E+1	2.014690E+1	1.506455E-5	0.000000E+0
1.120000E+1	2.014682E+1	1.524648E-5	0.000000E+0
1.140000E+1	2.014682E+1	1.542788E-5	0.000000E+0
1.160000E+1	2.014692E+1	1.560707E-5	0.000000E+0
1.180000E+1	2.014692E+1	1.578901E-5	0.000000E+0
1.200000E+1	2.014692E+1	1.596531E-5	0.000000E+0
1.220000E+1	2.014729E+1	1.614102E-5	0.000000E+0
1.240000E+1	2.014729E+1	1.631735E-5	0.000000E+0
1.260000E+1	2.014729E+1	1.649890E-5	0.000000E+0
1.280000E+1	2.014721E+1	1.667566E-5	0.000000E+0
1.300000E+1	2.014721E+1	1.684924E-5	0.000000E+0
1.320000E+1	2.014721E+1	1.702378E-5	0.000000E+0
1.340000E+1	2.014758E+1	1.719476E-5	0.000000E+0
1.360000E+1	2.014758E+1	1.736425E-5	0.000000E+0
1.380000E+1	2.014725E+1	1.753468E-5	0.000000E+0
1.400000E+1	2.014725E+1	1.770559E-5	0.000000E+0
1.420000E+1	2.014725E+1	1.787245E-5	0.000000E+0
1.440000E+1	2.014716E+1	1.803799E-5	0.000000E+0
1.460000E+1	2.014716E+1	1.820778E-5	0.000000E+0
1.480000E+1	2.014716E+1	1.837250E-5	0.000000E+0
1.500000E+1	2.014768E+1	1.853870E-5	0.000000E+0
1.520000E+1	2.014768E+1	1.870205E-5	0.000000E+0
1.540000E+1	2.014810E+1	1.886630E-5	0.000000E+0
1.560000E+1	2.014810E+1	1.902804E-5	0.000000E+0
1.580000E+1	2.014810E+1	1.919056E-5	0.000000E+0
1.600000E+1	2.014819E+1	1.935453E-5	0.000000E+0
END