IV MEASUREMENT
:start
2016-11-15 14:06:10
:stop
2016-11-15 14:13:29
:device
M200Y_06_HPKTS_2_MOSFET
:tester
Martin
:atmosphere
Air
:environment
Probe Station
:Instruments
VI Kei6487,CV AgE4980A,GI NM,T Kei2700
:Comment
circular, nMOSFET, Ids vs Vgate, Vback= -3V,Vds=0.05V, Bef.irrad.
 power lower < 1mW, probe station, wait. time 0 sec,after gluing
Annealing time [min]:
0@0
:temperature [C]
18.705568
:start,stop voltage [V] & number of points
-6.000000,19.000000,126
:Voltage increment and increment speed
1.000000,0.500000
:polarity and ramp mode
negative,0
:Current meter range
Auto
:Averaging (int,ext,NPLC,Median Rank)
3,5
3.000000
3
:legend
bias [V],T[C],Current[Amp],Guard Current[Amp]
BEGIN
-6.000000E+0	1.869683E+1	-3.969815E-12	0.000000E+0
-5.800000E+0	1.869683E+1	-3.936583E-12	0.000000E+0
-5.600000E+0	1.869648E+1	-3.939881E-12	0.000000E+0
-5.400000E+0	1.869648E+1	-3.894172E-12	0.000000E+0
-5.200000E+0	1.869648E+1	-3.911518E-12	0.000000E+0
-5.000000E+0	1.869774E+1	-3.912057E-12	0.000000E+0
-4.800000E+0	1.869774E+1	-3.876984E-12	0.000000E+0
-4.600000E+0	1.869793E+1	-3.864642E-12	0.000000E+0
-4.400000E+0	1.869793E+1	-3.894957E-12	0.000000E+0
-4.200000E+0	1.869793E+1	-3.883783E-12	0.000000E+0
-4.000000E+0	1.869782E+1	-3.912325E-12	0.000000E+0
-3.800000E+0	1.869782E+1	-3.930614E-12	0.000000E+0
-3.600000E+0	1.869782E+1	-3.942461E-12	0.000000E+0
-3.400000E+0	1.869827E+1	-4.025622E-12	0.000000E+0
-3.200000E+0	1.869827E+1	-4.111654E-12	0.000000E+0
-3.000000E+0	1.869827E+1	-4.197215E-12	0.000000E+0
-2.800000E+0	1.869855E+1	-4.407785E-12	0.000000E+0
-2.600000E+0	1.869855E+1	-4.882354E-12	0.000000E+0
-2.400000E+0	1.869910E+1	-5.944696E-12	0.000000E+0
-2.200000E+0	1.869910E+1	-7.614381E-12	0.000000E+0
-2.000000E+0	1.869910E+1	-9.685010E-12	0.000000E+0
-1.800000E+0	1.869942E+1	-1.191895E-11	0.000000E+0
-1.600000E+0	1.869942E+1	-1.430833E-11	0.000000E+0
-1.400000E+0	1.869942E+1	-1.687480E-11	0.000000E+0
-1.200000E+0	1.870002E+1	-1.956325E-11	0.000000E+0
-1.000000E+0	1.870002E+1	-2.212609E-11	0.000000E+0
-8.000000E-1	1.870040E+1	-2.409893E-11	0.000000E+0
-6.000000E-1	1.870040E+1	-2.565033E-11	0.000000E+0
-4.000000E-1	1.870040E+1	-2.667547E-11	0.000000E+0
-2.000000E-1	1.870063E+1	-2.751066E-11	0.000000E+0
3.053113E-15	1.870063E+1	-2.815550E-11	0.000000E+0
2.000000E-1	1.870063E+1	-2.890559E-11	0.000000E+0
4.000000E-1	1.870119E+1	-2.954658E-11	0.000000E+0
6.000000E-1	1.870119E+1	-3.023342E-11	0.000000E+0
8.000000E-1	1.870119E+1	-3.088782E-11	0.000000E+0
1.000000E+0	1.870133E+1	-3.167165E-11	0.000000E+0
1.200000E+0	1.870133E+1	-3.234642E-11	0.000000E+0
1.400000E+0	1.870216E+1	-3.304204E-11	0.000000E+0
1.600000E+0	1.870216E+1	-3.377201E-11	0.000000E+0
1.800000E+0	1.870216E+1	-3.451720E-11	0.000000E+0
2.000000E+0	1.870249E+1	-3.524984E-11	0.000000E+0
2.200000E+0	1.870249E+1	-3.593742E-11	0.000000E+0
2.400000E+0	1.870249E+1	-3.664052E-11	0.000000E+0
2.600000E+0	1.870316E+1	-3.735774E-11	0.000000E+0
2.800000E+0	1.870316E+1	-3.812235E-11	0.000000E+0
3.000000E+0	1.870309E+1	-3.878502E-11	0.000000E+0
3.200000E+0	1.870309E+1	-3.937729E-11	0.000000E+0
3.400000E+0	1.870309E+1	-3.982938E-11	0.000000E+0
3.600000E+0	1.870382E+1	-3.982131E-11	0.000000E+0
3.800000E+0	1.870382E+1	-3.910509E-11	0.000000E+0
4.000000E+0	1.870382E+1	-3.836218E-11	0.000000E+0
4.200000E+0	1.870402E+1	-3.779109E-11	0.000000E+0
4.400000E+0	1.870402E+1	-3.743863E-11	0.000000E+0
4.600000E+0	1.870402E+1	-3.699464E-11	0.000000E+0
4.800000E+0	1.870463E+1	-3.668400E-11	0.000000E+0
5.000000E+0	1.870463E+1	-3.614660E-11	0.000000E+0
5.200000E+0	1.870433E+1	2.401830E-11	0.000000E+0
5.400000E+0	1.870433E+1	1.012290E-8	0.000000E+0
5.600000E+0	1.870433E+1	1.005768E-7	0.000000E+0
5.800000E+0	1.870588E+1	2.650569E-7	0.000000E+0
6.000000E+0	1.870588E+1	4.604740E-7	0.000000E+0
6.200000E+0	1.870579E+1	6.672878E-7	0.000000E+0
6.400000E+0	1.870579E+1	8.795525E-7	0.000000E+0
6.600000E+0	1.870579E+1	1.094794E-6	0.000000E+0
6.800000E+0	1.870600E+1	1.311146E-6	0.000000E+0
7.000000E+0	1.870600E+1	1.528227E-6	0.000000E+0
7.200000E+0	1.870600E+1	1.744828E-6	0.000000E+0
7.400000E+0	1.870701E+1	1.961679E-6	0.000000E+0
7.600000E+0	1.870701E+1	2.178256E-6	0.000000E+0
7.800000E+0	1.870717E+1	2.393683E-6	0.000000E+0
8.000000E+0	1.870717E+1	2.608330E-6	0.000000E+0
8.200000E+0	1.870717E+1	2.822300E-6	0.000000E+0
8.400000E+0	1.870709E+1	3.034595E-6	0.000000E+0
8.600000E+0	1.870709E+1	3.246198E-6	0.000000E+0
8.800000E+0	1.870709E+1	3.456541E-6	0.000000E+0
9.000000E+0	1.870783E+1	3.666101E-6	0.000000E+0
9.200000E+0	1.870783E+1	3.874678E-6	0.000000E+0
9.400000E+0	1.870783E+1	4.081227E-6	0.000000E+0
9.600000E+0	1.870742E+1	4.285871E-6	0.000000E+0
9.800000E+0	1.870742E+1	4.490596E-6	0.000000E+0
1.000000E+1	1.870865E+1	4.694189E-6	0.000000E+0
1.020000E+1	1.870865E+1	4.896171E-6	0.000000E+0
1.040000E+1	1.870865E+1	5.097471E-6	0.000000E+0
1.060000E+1	1.870888E+1	5.298111E-6	0.000000E+0
1.080000E+1	1.870888E+1	5.496946E-6	0.000000E+0
1.100000E+1	1.870888E+1	5.694516E-6	0.000000E+0
1.120000E+1	1.870926E+1	5.891759E-6	0.000000E+0
1.140000E+1	1.870926E+1	6.087896E-6	0.000000E+0
1.160000E+1	1.870926E+1	6.282317E-6	0.000000E+0
1.180000E+1	1.870894E+1	6.476245E-6	0.000000E+0
1.200000E+1	1.870894E+1	6.667890E-6	0.000000E+0
1.220000E+1	1.870974E+1	6.858541E-6	0.000000E+0
1.240000E+1	1.870974E+1	7.048409E-6	0.000000E+0
1.260000E+1	1.870974E+1	7.245706E-6	0.000000E+0
1.280000E+1	1.871038E+1	7.436085E-6	0.000000E+0
1.300000E+1	1.871038E+1	7.623466E-6	0.000000E+0
1.320000E+1	1.871038E+1	7.810074E-6	0.000000E+0
1.340000E+1	1.871025E+1	7.995665E-6	0.000000E+0
1.360000E+1	1.871025E+1	8.180527E-6	0.000000E+0
1.380000E+1	1.871134E+1	8.363816E-6	0.000000E+0
1.400000E+1	1.871134E+1	8.546995E-6	0.000000E+0
1.420000E+1	1.871134E+1	8.729898E-6	0.000000E+0
1.440000E+1	1.871178E+1	8.910922E-6	0.000000E+0
1.460000E+1	1.871178E+1	9.091247E-6	0.000000E+0
1.480000E+1	1.871178E+1	9.269011E-6	0.000000E+0
1.500000E+1	1.871172E+1	9.446825E-6	0.000000E+0
1.520000E+1	1.871172E+1	9.624298E-6	0.000000E+0
1.540000E+1	1.871172E+1	9.799823E-6	0.000000E+0
1.560000E+1	1.871209E+1	9.974747E-6	0.000000E+0
1.580000E+1	1.871209E+1	1.014987E-5	0.000000E+0
1.600000E+1	1.871238E+1	1.032382E-5	0.000000E+0
1.620000E+1	1.871238E+1	1.049837E-5	0.000000E+0
1.640000E+1	1.871238E+1	1.066958E-5	0.000000E+0
1.660000E+1	1.871316E+1	1.084126E-5	0.000000E+0
1.680000E+1	1.871316E+1	1.101321E-5	0.000000E+0
1.700000E+1	1.871316E+1	1.118289E-5	0.000000E+0
1.720000E+1	1.871328E+1	1.135397E-5	0.000000E+0
1.740000E+1	1.871328E+1	1.152088E-5	0.000000E+0
1.760000E+1	1.871328E+1	1.169067E-5	0.000000E+0
1.780000E+1	1.871351E+1	1.185825E-5	0.000000E+0
1.800000E+1	1.871351E+1	1.202454E-5	0.000000E+0
1.820000E+1	1.871385E+1	1.219204E-5	0.000000E+0
1.840000E+1	1.871385E+1	1.235637E-5	0.000000E+0
1.860000E+1	1.871385E+1	1.252070E-5	0.000000E+0
1.880000E+1	1.871426E+1	1.268479E-5	0.000000E+0
1.900000E+1	1.871426E+1	1.284798E-5	0.000000E+0
END