IV MEASUREMENT
:start
2016-11-15 12:24:49
:stop
2016-11-15 12:32:08
:device
M200Y_06_HPKTS_2_MOSFET
:tester
Martin
:atmosphere
Air
:environment
Probe Station
:Instruments
VI Kei6487,CV AgE4980A,GI NM,T Kei2700
:Comment
circular, nMOSFET, Ids vs Vgate, Vback= -1V,Vds=0.05V, Bef.irrad.
 power lower < 1mW, probe station, wait. time 0 sec,after gluing
Annealing time [min]:
0@0
:temperature [C]
18.507304
:start,stop voltage [V] & number of points
-6.000000,19.000000,126
:Voltage increment and increment speed
1.000000,0.500000
:polarity and ramp mode
negative,0
:Current meter range
Auto
:Averaging (int,ext,NPLC,Median Rank)
3,5
3.000000
3
:legend
bias [V],T[C],Current[Amp],Guard Current[Amp]
BEGIN
-6.000000E+0	1.849656E+1	-3.191764E-12	0.000000E+0
-5.800000E+0	1.849656E+1	-3.168966E-12	0.000000E+0
-5.600000E+0	1.849716E+1	-3.190283E-12	0.000000E+0
-5.400000E+0	1.849716E+1	-3.147200E-12	0.000000E+0
-5.200000E+0	1.849716E+1	-3.186289E-12	0.000000E+0
-5.000000E+0	1.849754E+1	-3.150925E-12	0.000000E+0
-4.800000E+0	1.849754E+1	-3.124514E-12	0.000000E+0
-4.600000E+0	1.849825E+1	-3.124379E-12	0.000000E+0
-4.400000E+0	1.849825E+1	-3.114977E-12	0.000000E+0
-4.200000E+0	1.849825E+1	-3.117938E-12	0.000000E+0
-4.000000E+0	1.849846E+1	-3.087959E-12	0.000000E+0
-3.800000E+0	1.849846E+1	-3.057734E-12	0.000000E+0
-3.600000E+0	1.849846E+1	-3.053246E-12	0.000000E+0
-3.400000E+0	1.849914E+1	-3.070008E-12	0.000000E+0
-3.200000E+0	1.849914E+1	-3.062401E-12	0.000000E+0
-3.000000E+0	1.849914E+1	-3.060157E-12	0.000000E+0
-2.800000E+0	1.849912E+1	-3.030201E-12	0.000000E+0
-2.600000E+0	1.849912E+1	-3.025107E-12	0.000000E+0
-2.400000E+0	1.849990E+1	-2.975718E-12	0.000000E+0
-2.200000E+0	1.849990E+1	-2.979914E-12	0.000000E+0
-2.000000E+0	1.849990E+1	-2.990461E-12	0.000000E+0
-1.800000E+0	1.850061E+1	-3.010072E-12	0.000000E+0
-1.600000E+0	1.850061E+1	-3.069491E-12	0.000000E+0
-1.400000E+0	1.850061E+1	-3.071983E-12	0.000000E+0
-1.200000E+0	1.850005E+1	-3.149016E-12	0.000000E+0
-1.000000E+0	1.850005E+1	-3.301290E-12	0.000000E+0
-8.000000E-1	1.850117E+1	-3.535063E-12	0.000000E+0
-6.000000E-1	1.850117E+1	-3.925216E-12	0.000000E+0
-4.000000E-1	1.850117E+1	-5.012716E-12	0.000000E+0
-2.000000E-1	1.850135E+1	-6.662725E-12	0.000000E+0
3.053113E-15	1.850135E+1	-8.533897E-12	0.000000E+0
2.000000E-1	1.850135E+1	-1.069961E-11	0.000000E+0
4.000000E-1	1.850192E+1	-1.307470E-11	0.000000E+0
6.000000E-1	1.850192E+1	-1.564999E-11	0.000000E+0
8.000000E-1	1.850192E+1	-1.827416E-11	0.000000E+0
1.000000E+0	1.850209E+1	-2.077965E-11	0.000000E+0
1.200000E+0	1.850209E+1	-2.292579E-11	0.000000E+0
1.400000E+0	1.850280E+1	-2.443425E-11	0.000000E+0
1.600000E+0	1.850280E+1	-2.544709E-11	0.000000E+0
1.800000E+0	1.850280E+1	-2.626088E-11	0.000000E+0
2.000000E+0	1.850364E+1	-2.690195E-11	0.000000E+0
2.200000E+0	1.850364E+1	-2.756708E-11	0.000000E+0
2.400000E+0	1.850364E+1	-2.830176E-11	0.000000E+0
2.600000E+0	1.850359E+1	-2.897334E-11	0.000000E+0
2.800000E+0	1.850359E+1	-2.970272E-11	0.000000E+0
3.000000E+0	1.850407E+1	-3.031163E-11	0.000000E+0
3.200000E+0	1.850407E+1	-3.105486E-11	0.000000E+0
3.400000E+0	1.850407E+1	-3.170125E-11	0.000000E+0
3.600000E+0	1.850452E+1	-3.200396E-11	0.000000E+0
3.800000E+0	1.850452E+1	-2.787001E-11	0.000000E+0
4.000000E+0	1.850452E+1	3.092547E-11	0.000000E+0
4.200000E+0	1.850481E+1	7.694303E-10	0.000000E+0
4.400000E+0	1.850481E+1	8.549123E-9	0.000000E+0
4.600000E+0	1.850606E+1	5.171939E-8	0.000000E+0
4.800000E+0	1.850606E+1	1.574607E-7	0.000000E+0
5.000000E+0	1.850606E+1	3.131513E-7	0.000000E+0
5.200000E+0	1.850641E+1	5.039782E-7	0.000000E+0
5.400000E+0	1.850641E+1	7.043945E-7	0.000000E+0
5.600000E+0	1.850641E+1	9.110054E-7	0.000000E+0
5.800000E+0	1.850628E+1	1.122002E-6	0.000000E+0
6.000000E+0	1.850628E+1	1.336035E-6	0.000000E+0
6.200000E+0	1.850754E+1	1.551481E-6	0.000000E+0
6.400000E+0	1.850754E+1	1.767557E-6	0.000000E+0
6.600000E+0	1.850754E+1	1.984879E-6	0.000000E+0
6.800000E+0	1.850820E+1	2.201998E-6	0.000000E+0
7.000000E+0	1.850820E+1	2.418367E-6	0.000000E+0
7.200000E+0	1.850820E+1	2.633379E-6	0.000000E+0
7.400000E+0	1.850772E+1	2.847490E-6	0.000000E+0
7.600000E+0	1.850772E+1	3.061768E-6	0.000000E+0
7.800000E+0	1.850772E+1	3.274637E-6	0.000000E+0
8.000000E+0	1.850852E+1	3.486840E-6	0.000000E+0
8.200000E+0	1.850852E+1	3.698224E-6	0.000000E+0
8.400000E+0	1.850877E+1	3.907656E-6	0.000000E+0
8.600000E+0	1.850877E+1	4.116461E-6	0.000000E+0
8.800000E+0	1.850877E+1	4.325428E-6	0.000000E+0
9.000000E+0	1.850964E+1	4.531561E-6	0.000000E+0
9.200000E+0	1.850964E+1	4.737377E-6	0.000000E+0
9.400000E+0	1.850964E+1	4.941911E-6	0.000000E+0
9.600000E+0	1.851080E+1	5.145288E-6	0.000000E+0
9.800000E+0	1.851080E+1	5.348138E-6	0.000000E+0
1.000000E+1	1.851051E+1	5.549397E-6	0.000000E+0
1.020000E+1	1.851051E+1	5.749035E-6	0.000000E+0
1.040000E+1	1.851051E+1	5.948698E-6	0.000000E+0
1.060000E+1	1.851143E+1	6.147387E-6	0.000000E+0
1.080000E+1	1.851143E+1	6.344167E-6	0.000000E+0
1.100000E+1	1.851143E+1	6.539689E-6	0.000000E+0
1.120000E+1	1.851201E+1	6.733930E-6	0.000000E+0
1.140000E+1	1.851201E+1	6.927406E-6	0.000000E+0
1.160000E+1	1.851201E+1	7.119806E-6	0.000000E+0
1.180000E+1	1.851214E+1	7.311410E-6	0.000000E+0
1.200000E+1	1.851214E+1	7.501923E-6	0.000000E+0
1.220000E+1	1.851304E+1	7.690399E-6	0.000000E+0
1.240000E+1	1.851304E+1	7.879105E-6	0.000000E+0
1.260000E+1	1.851304E+1	8.073641E-6	0.000000E+0
1.280000E+1	1.851344E+1	8.261939E-6	0.000000E+0
1.300000E+1	1.851344E+1	8.446750E-6	0.000000E+0
1.320000E+1	1.851344E+1	8.631602E-6	0.000000E+0
1.340000E+1	1.851370E+1	8.816772E-6	0.000000E+0
1.360000E+1	1.851370E+1	9.000352E-6	0.000000E+0
1.380000E+1	1.851408E+1	9.183236E-6	0.000000E+0
1.400000E+1	1.851408E+1	9.364384E-6	0.000000E+0
1.420000E+1	1.851408E+1	9.542571E-6	0.000000E+0
1.440000E+1	1.851429E+1	9.720790E-6	0.000000E+0
1.460000E+1	1.851429E+1	9.900858E-6	0.000000E+0
1.480000E+1	1.851429E+1	1.007892E-5	0.000000E+0
1.500000E+1	1.851477E+1	1.025595E-5	0.000000E+0
1.520000E+1	1.851477E+1	1.043309E-5	0.000000E+0
1.540000E+1	1.851477E+1	1.060820E-5	0.000000E+0
1.560000E+1	1.851575E+1	1.078424E-5	0.000000E+0
1.580000E+1	1.851575E+1	1.095977E-5	0.000000E+0
1.600000E+1	1.851570E+1	1.112892E-5	0.000000E+0
1.620000E+1	1.851570E+1	1.130042E-5	0.000000E+0
1.640000E+1	1.851570E+1	1.147144E-5	0.000000E+0
1.660000E+1	1.851593E+1	1.164376E-5	0.000000E+0
1.680000E+1	1.851593E+1	1.181404E-5	0.000000E+0
1.700000E+1	1.851593E+1	1.198258E-5	0.000000E+0
1.720000E+1	1.851662E+1	1.215244E-5	0.000000E+0
1.740000E+1	1.851662E+1	1.231847E-5	0.000000E+0
1.760000E+1	1.851662E+1	1.248496E-5	0.000000E+0
1.780000E+1	1.851667E+1	1.265139E-5	0.000000E+0
1.800000E+1	1.851667E+1	1.281549E-5	0.000000E+0
1.820000E+1	1.851722E+1	1.297932E-5	0.000000E+0
1.840000E+1	1.851722E+1	1.314433E-5	0.000000E+0
1.860000E+1	1.851722E+1	1.330997E-5	0.000000E+0
1.880000E+1	1.851804E+1	1.347337E-5	0.000000E+0
1.900000E+1	1.851804E+1	1.363300E-5	0.000000E+0
END