IV MEASUREMENT
:start
2016-11-15 12:16:14
:stop
2016-11-15 12:23:32
:device
M200Y_06_HPKTS_2_MOSFET
:tester
Martin
:atmosphere
Air
:environment
Probe Station
:Instruments
VI Kei6487,CV AgE4980A,GI NM,T Kei2700
:Comment
circular, nMOSFET, Ids vs Vgate, Vback= -0.8V,Vds=0.05V, Bef.irrad.
 power lower < 1mW, probe station, wait. time 0 sec,after gluing
Annealing time [min]:
0@0
:temperature [C]
18.483444
:start,stop voltage [V] & number of points
-6.000000,19.000000,126
:Voltage increment and increment speed
1.000000,0.500000
:polarity and ramp mode
negative,0
:Current meter range
Auto
:Averaging (int,ext,NPLC,Median Rank)
3,5
3.000000
3
:legend
bias [V],T[C],Current[Amp],Guard Current[Amp]
BEGIN
-6.000000E+0	1.847462E+1	-3.118457E-12	0.000000E+0
-5.800000E+0	1.847462E+1	-3.159834E-12	0.000000E+0
-5.600000E+0	1.847517E+1	-3.102210E-12	0.000000E+0
-5.400000E+0	1.847517E+1	-3.124425E-12	0.000000E+0
-5.200000E+0	1.847517E+1	-3.047323E-12	0.000000E+0
-5.000000E+0	1.847525E+1	-3.040143E-12	0.000000E+0
-4.800000E+0	1.847525E+1	-2.985705E-12	0.000000E+0
-4.600000E+0	1.847528E+1	-2.980723E-12	0.000000E+0
-4.400000E+0	1.847528E+1	-2.916749E-12	0.000000E+0
-4.200000E+0	1.847528E+1	-2.983102E-12	0.000000E+0
-4.000000E+0	1.847623E+1	-3.101043E-12	0.000000E+0
-3.800000E+0	1.847623E+1	-2.911924E-12	0.000000E+0
-3.600000E+0	1.847623E+1	-2.889507E-12	0.000000E+0
-3.400000E+0	1.847668E+1	-3.035318E-12	0.000000E+0
-3.200000E+0	1.847668E+1	-2.922672E-12	0.000000E+0
-3.000000E+0	1.847668E+1	-2.919105E-12	0.000000E+0
-2.800000E+0	1.847714E+1	-3.031795E-12	0.000000E+0
-2.600000E+0	1.847714E+1	-2.948949E-12	0.000000E+0
-2.400000E+0	1.847668E+1	-2.924670E-12	0.000000E+0
-2.200000E+0	1.847668E+1	-2.804058E-12	0.000000E+0
-2.000000E+0	1.847668E+1	-2.928327E-12	0.000000E+0
-1.800000E+0	1.847732E+1	-2.912373E-12	0.000000E+0
-1.600000E+0	1.847732E+1	-2.887263E-12	0.000000E+0
-1.400000E+0	1.847732E+1	-2.936854E-12	0.000000E+0
-1.200000E+0	1.847767E+1	-2.987768E-12	0.000000E+0
-1.000000E+0	1.847767E+1	-3.160349E-12	0.000000E+0
-8.000000E-1	1.847796E+1	-3.110512E-12	0.000000E+0
-6.000000E-1	1.847796E+1	-3.347381E-12	0.000000E+0
-4.000000E-1	1.847796E+1	-3.932756E-12	0.000000E+0
-2.000000E-1	1.847816E+1	-4.869845E-12	0.000000E+0
3.053113E-15	1.847816E+1	-6.329279E-12	0.000000E+0
2.000000E-1	1.847816E+1	-8.403033E-12	0.000000E+0
4.000000E-1	1.847975E+1	-1.062863E-11	0.000000E+0
6.000000E-1	1.847975E+1	-1.295458E-11	0.000000E+0
8.000000E-1	1.847975E+1	-1.548119E-11	0.000000E+0
1.000000E+0	1.847942E+1	-1.818091E-11	0.000000E+0
1.200000E+0	1.847942E+1	-2.065244E-11	0.000000E+0
1.400000E+0	1.847998E+1	-2.273343E-11	0.000000E+0
1.600000E+0	1.847998E+1	-2.426099E-11	0.000000E+0
1.800000E+0	1.847998E+1	-2.532603E-11	0.000000E+0
2.000000E+0	1.848046E+1	-2.615181E-11	0.000000E+0
2.200000E+0	1.848046E+1	-2.682208E-11	0.000000E+0
2.400000E+0	1.848046E+1	-2.746324E-11	0.000000E+0
2.600000E+0	1.848045E+1	-2.817997E-11	0.000000E+0
2.800000E+0	1.848045E+1	-2.881018E-11	0.000000E+0
3.000000E+0	1.848121E+1	-2.940560E-11	0.000000E+0
3.200000E+0	1.848121E+1	-2.950344E-11	0.000000E+0
3.400000E+0	1.848121E+1	-2.396746E-11	0.000000E+0
3.600000E+0	1.848120E+1	3.822729E-11	0.000000E+0
3.800000E+0	1.848120E+1	6.796546E-10	0.000000E+0
4.000000E+0	1.848120E+1	6.508767E-9	0.000000E+0
4.200000E+0	1.848175E+1	3.961598E-8	0.000000E+0
4.400000E+0	1.848175E+1	1.299479E-7	0.000000E+0
4.600000E+0	1.848207E+1	2.734943E-7	0.000000E+0
4.800000E+0	1.848207E+1	4.502491E-7	0.000000E+0
5.000000E+0	1.848207E+1	6.451367E-7	0.000000E+0
5.200000E+0	1.848248E+1	8.577702E-7	0.000000E+0
5.400000E+0	1.848248E+1	1.070566E-6	0.000000E+0
5.600000E+0	1.848248E+1	1.284927E-6	0.000000E+0
5.800000E+0	1.848320E+1	1.500943E-6	0.000000E+0
6.000000E+0	1.848320E+1	1.718508E-6	0.000000E+0
6.200000E+0	1.848328E+1	1.936397E-6	0.000000E+0
6.400000E+0	1.848328E+1	2.155129E-6	0.000000E+0
6.600000E+0	1.848328E+1	2.372584E-6	0.000000E+0
6.800000E+0	1.848399E+1	2.588924E-6	0.000000E+0
7.000000E+0	1.848399E+1	2.805355E-6	0.000000E+0
7.200000E+0	1.848399E+1	3.021111E-6	0.000000E+0
7.400000E+0	1.848400E+1	3.235746E-6	0.000000E+0
7.600000E+0	1.848400E+1	3.449702E-6	0.000000E+0
7.800000E+0	1.848400E+1	3.662028E-6	0.000000E+0
8.000000E+0	1.848462E+1	3.874045E-6	0.000000E+0
8.200000E+0	1.848462E+1	4.085180E-6	0.000000E+0
8.400000E+0	1.848544E+1	4.294857E-6	0.000000E+0
8.600000E+0	1.848544E+1	4.503250E-6	0.000000E+0
8.800000E+0	1.848544E+1	4.710654E-6	0.000000E+0
9.000000E+0	1.848526E+1	4.916208E-6	0.000000E+0
9.200000E+0	1.848526E+1	5.121878E-6	0.000000E+0
9.400000E+0	1.848526E+1	5.325896E-6	0.000000E+0
9.600000E+0	1.848582E+1	5.528247E-6	0.000000E+0
9.800000E+0	1.848582E+1	5.731241E-6	0.000000E+0
1.000000E+1	1.848596E+1	5.932018E-6	0.000000E+0
1.020000E+1	1.848596E+1	6.131601E-6	0.000000E+0
1.040000E+1	1.848596E+1	6.330047E-6	0.000000E+0
1.060000E+1	1.848616E+1	6.526505E-6	0.000000E+0
1.080000E+1	1.848616E+1	6.722917E-6	0.000000E+0
1.100000E+1	1.848616E+1	6.917793E-6	0.000000E+0
1.120000E+1	1.848719E+1	7.112007E-6	0.000000E+0
1.140000E+1	1.848719E+1	7.305041E-6	0.000000E+0
1.160000E+1	1.848719E+1	7.497023E-6	0.000000E+0
1.180000E+1	1.848718E+1	7.688100E-6	0.000000E+0
1.200000E+1	1.848718E+1	7.877707E-6	0.000000E+0
1.220000E+1	1.848789E+1	8.066372E-6	0.000000E+0
1.240000E+1	1.848789E+1	8.254785E-6	0.000000E+0
1.260000E+1	1.848789E+1	8.449985E-6	0.000000E+0
1.280000E+1	1.848771E+1	8.639156E-6	0.000000E+0
1.300000E+1	1.848771E+1	8.822665E-6	0.000000E+0
1.320000E+1	1.848771E+1	9.006122E-6	0.000000E+0
1.340000E+1	1.848838E+1	9.189596E-6	0.000000E+0
1.360000E+1	1.848838E+1	9.371460E-6	0.000000E+0
1.380000E+1	1.848838E+1	9.553096E-6	0.000000E+0
1.400000E+1	1.848897E+1	9.734503E-6	0.000000E+0
1.420000E+1	1.848897E+1	9.915518E-6	0.000000E+0
1.440000E+1	1.848931E+1	1.009476E-5	0.000000E+0
1.460000E+1	1.848931E+1	1.027259E-5	0.000000E+0
1.480000E+1	1.848931E+1	1.044784E-5	0.000000E+0
1.500000E+1	1.848994E+1	1.062397E-5	0.000000E+0
1.520000E+1	1.848994E+1	1.079975E-5	0.000000E+0
1.540000E+1	1.848994E+1	1.097415E-5	0.000000E+0
1.560000E+1	1.849096E+1	1.114708E-5	0.000000E+0
1.580000E+1	1.849096E+1	1.132156E-5	0.000000E+0
1.600000E+1	1.849067E+1	1.149514E-5	0.000000E+0
1.620000E+1	1.849067E+1	1.166669E-5	0.000000E+0
1.640000E+1	1.849067E+1	1.183814E-5	0.000000E+0
1.660000E+1	1.849110E+1	1.200850E-5	0.000000E+0
1.680000E+1	1.849110E+1	1.217622E-5	0.000000E+0
1.700000E+1	1.849110E+1	1.234428E-5	0.000000E+0
1.720000E+1	1.849140E+1	1.251391E-5	0.000000E+0
1.740000E+1	1.849140E+1	1.268042E-5	0.000000E+0
1.760000E+1	1.849140E+1	1.284744E-5	0.000000E+0
1.780000E+1	1.849189E+1	1.301365E-5	0.000000E+0
1.800000E+1	1.849189E+1	1.317818E-5	0.000000E+0
1.820000E+1	1.849230E+1	1.334186E-5	0.000000E+0
1.840000E+1	1.849230E+1	1.350685E-5	0.000000E+0
1.860000E+1	1.849230E+1	1.367000E-5	0.000000E+0
1.880000E+1	1.849213E+1	1.383247E-5	0.000000E+0
1.900000E+1	1.849213E+1	1.399349E-5	0.000000E+0
END