IV MEASUREMENT
:start
2016-11-15 12:33:30
:stop
2016-11-15 12:40:49
:device
M200Y_06_HPKTS_2_MOSFET
:tester
Martin
:atmosphere
Air
:environment
Probe Station
:Instruments
VI Kei6487,CV AgE4980A,GI NM,T Kei2700
:Comment
circular, nMOSFET, Ids vs Vgate, Vback= -1.3V,Vds=0.05V, Bef.irrad.
 power lower < 1mW, probe station, wait. time 0 sec,after gluing
Annealing time [min]:
0@0
:temperature [C]
18.533089
:start,stop voltage [V] & number of points
-6.000000,19.000000,126
:Voltage increment and increment speed
1.000000,0.500000
:polarity and ramp mode
negative,0
:Current meter range
Auto
:Averaging (int,ext,NPLC,Median Rank)
3,5
3.000000
3
:legend
bias [V],T[C],Current[Amp],Guard Current[Amp]
BEGIN
-6.000000E+0	1.852251E+1	-3.337350E-12	0.000000E+0
-5.800000E+0	1.852251E+1	-3.314394E-12	0.000000E+0
-5.600000E+0	1.852223E+1	-3.309458E-12	0.000000E+0
-5.400000E+0	1.852223E+1	-3.277056E-12	0.000000E+0
-5.200000E+0	1.852223E+1	-3.310579E-12	0.000000E+0
-5.000000E+0	1.852370E+1	-3.341231E-12	0.000000E+0
-4.800000E+0	1.852370E+1	-3.272567E-12	0.000000E+0
-4.600000E+0	1.852378E+1	-3.276247E-12	0.000000E+0
-4.400000E+0	1.852378E+1	-3.216896E-12	0.000000E+0
-4.200000E+0	1.852378E+1	-3.218197E-12	0.000000E+0
-4.000000E+0	1.852484E+1	-3.236911E-12	0.000000E+0
-3.800000E+0	1.852484E+1	-3.211981E-12	0.000000E+0
-3.600000E+0	1.852484E+1	-3.206932E-12	0.000000E+0
-3.400000E+0	1.852522E+1	-3.185772E-12	0.000000E+0
-3.200000E+0	1.852522E+1	-3.204755E-12	0.000000E+0
-3.000000E+0	1.852522E+1	-3.199370E-12	0.000000E+0
-2.800000E+0	1.852585E+1	-3.163624E-12	0.000000E+0
-2.600000E+0	1.852585E+1	-3.174597E-12	0.000000E+0
-2.400000E+0	1.852619E+1	-3.163490E-12	0.000000E+0
-2.200000E+0	1.852619E+1	-3.209131E-12	0.000000E+0
-2.000000E+0	1.852619E+1	-3.165487E-12	0.000000E+0
-1.800000E+0	1.852669E+1	-3.235991E-12	0.000000E+0
-1.600000E+0	1.852669E+1	-3.299539E-12	0.000000E+0
-1.400000E+0	1.852669E+1	-3.398743E-12	0.000000E+0
-1.200000E+0	1.852675E+1	-3.509077E-12	0.000000E+0
-1.000000E+0	1.852675E+1	-3.903336E-12	0.000000E+0
-8.000000E-1	1.852776E+1	-4.545954E-12	0.000000E+0
-6.000000E-1	1.852776E+1	-5.963985E-12	0.000000E+0
-4.000000E-1	1.852776E+1	-7.785228E-12	0.000000E+0
-2.000000E-1	1.852837E+1	-9.927691E-12	0.000000E+0
3.053113E-15	1.852837E+1	-1.208458E-11	0.000000E+0
2.000000E-1	1.852837E+1	-1.450163E-11	0.000000E+0
4.000000E-1	1.852855E+1	-1.713341E-11	0.000000E+0
6.000000E-1	1.852855E+1	-1.973920E-11	0.000000E+0
8.000000E-1	1.852855E+1	-2.209228E-11	0.000000E+0
1.000000E+0	1.852855E+1	-2.385816E-11	0.000000E+0
1.200000E+0	1.852855E+1	-2.510593E-11	0.000000E+0
1.400000E+0	1.852910E+1	-2.606581E-11	0.000000E+0
1.600000E+0	1.852910E+1	-2.677033E-11	0.000000E+0
1.800000E+0	1.852910E+1	-2.746668E-11	0.000000E+0
2.000000E+0	1.852967E+1	-2.813001E-11	0.000000E+0
2.200000E+0	1.852967E+1	-2.880354E-11	0.000000E+0
2.400000E+0	1.852967E+1	-2.950497E-11	0.000000E+0
2.600000E+0	1.853058E+1	-3.018336E-11	0.000000E+0
2.800000E+0	1.853058E+1	-3.088537E-11	0.000000E+0
3.000000E+0	1.853015E+1	-3.161256E-11	0.000000E+0
3.200000E+0	1.853015E+1	-3.229186E-11	0.000000E+0
3.400000E+0	1.853015E+1	-3.302319E-11	0.000000E+0
3.600000E+0	1.853161E+1	-3.371612E-11	0.000000E+0
3.800000E+0	1.853161E+1	-3.438961E-11	0.000000E+0
4.000000E+0	1.853161E+1	-3.504625E-11	0.000000E+0
4.200000E+0	1.853173E+1	-3.496547E-11	0.000000E+0
4.400000E+0	1.853173E+1	-2.308636E-11	0.000000E+0
4.600000E+0	1.853173E+1	2.044675E-10	0.000000E+0
4.800000E+0	1.853146E+1	4.071138E-9	0.000000E+0
5.000000E+0	1.853146E+1	3.820950E-8	0.000000E+0
5.200000E+0	1.853193E+1	1.460268E-7	0.000000E+0
5.400000E+0	1.853193E+1	3.061323E-7	0.000000E+0
5.600000E+0	1.853193E+1	4.931771E-7	0.000000E+0
5.800000E+0	1.853274E+1	6.935563E-7	0.000000E+0
6.000000E+0	1.853274E+1	9.013615E-7	0.000000E+0
6.200000E+0	1.853301E+1	1.113030E-6	0.000000E+0
6.400000E+0	1.853301E+1	1.327102E-6	0.000000E+0
6.600000E+0	1.853301E+1	1.542851E-6	0.000000E+0
6.800000E+0	1.853320E+1	1.758694E-6	0.000000E+0
7.000000E+0	1.853320E+1	1.974761E-6	0.000000E+0
7.200000E+0	1.853320E+1	2.191301E-6	0.000000E+0
7.400000E+0	1.853408E+1	2.406835E-6	0.000000E+0
7.600000E+0	1.853408E+1	2.621275E-6	0.000000E+0
7.800000E+0	1.853439E+1	2.835262E-6	0.000000E+0
8.000000E+0	1.853439E+1	3.048676E-6	0.000000E+0
8.200000E+0	1.853439E+1	3.260758E-6	0.000000E+0
8.400000E+0	1.853513E+1	3.472508E-6	0.000000E+0
8.600000E+0	1.853513E+1	3.682326E-6	0.000000E+0
8.800000E+0	1.853513E+1	3.890257E-6	0.000000E+0
9.000000E+0	1.853544E+1	4.098587E-6	0.000000E+0
9.200000E+0	1.853544E+1	4.305224E-6	0.000000E+0
9.400000E+0	1.853544E+1	4.510978E-6	0.000000E+0
9.600000E+0	1.853520E+1	4.715190E-6	0.000000E+0
9.800000E+0	1.853520E+1	4.918370E-6	0.000000E+0
1.000000E+1	1.853643E+1	5.120860E-6	0.000000E+0
1.020000E+1	1.853643E+1	5.321899E-6	0.000000E+0
1.040000E+1	1.853643E+1	5.521870E-6	0.000000E+0
1.060000E+1	1.853651E+1	5.720017E-6	0.000000E+0
1.080000E+1	1.853651E+1	5.917672E-6	0.000000E+0
1.100000E+1	1.853651E+1	6.114364E-6	0.000000E+0
1.120000E+1	1.853695E+1	6.310359E-6	0.000000E+0
1.140000E+1	1.853695E+1	6.504796E-6	0.000000E+0
1.160000E+1	1.853695E+1	6.698461E-6	0.000000E+0
1.180000E+1	1.853760E+1	6.891442E-6	0.000000E+0
1.200000E+1	1.853760E+1	7.083216E-6	0.000000E+0
1.220000E+1	1.853764E+1	7.273444E-6	0.000000E+0
1.240000E+1	1.853764E+1	7.462069E-6	0.000000E+0
1.260000E+1	1.853764E+1	7.657048E-6	0.000000E+0
1.280000E+1	1.853817E+1	7.846364E-6	0.000000E+0
1.300000E+1	1.853817E+1	8.034775E-6	0.000000E+0
1.320000E+1	1.853817E+1	8.219905E-6	0.000000E+0
1.340000E+1	1.853899E+1	8.403446E-6	0.000000E+0
1.360000E+1	1.853899E+1	8.587215E-6	0.000000E+0
1.380000E+1	1.853890E+1	8.769954E-6	0.000000E+0
1.400000E+1	1.853890E+1	8.950930E-6	0.000000E+0
1.420000E+1	1.853890E+1	9.131703E-6	0.000000E+0
1.440000E+1	1.853963E+1	9.312196E-6	0.000000E+0
1.460000E+1	1.853963E+1	9.492758E-6	0.000000E+0
1.480000E+1	1.853963E+1	9.671544E-6	0.000000E+0
1.500000E+1	1.853997E+1	9.849052E-6	0.000000E+0
1.520000E+1	1.853997E+1	1.002591E-5	0.000000E+0
1.540000E+1	1.853997E+1	1.020220E-5	0.000000E+0
1.560000E+1	1.854004E+1	1.037730E-5	0.000000E+0
1.580000E+1	1.854004E+1	1.055169E-5	0.000000E+0
1.600000E+1	1.854087E+1	1.072469E-5	0.000000E+0
1.620000E+1	1.854087E+1	1.089682E-5	0.000000E+0
1.640000E+1	1.854087E+1	1.106905E-5	0.000000E+0
1.660000E+1	1.854143E+1	1.124118E-5	0.000000E+0
1.680000E+1	1.854143E+1	1.141100E-5	0.000000E+0
1.700000E+1	1.854143E+1	1.158166E-5	0.000000E+0
1.720000E+1	1.854241E+1	1.174892E-5	0.000000E+0
1.740000E+1	1.854241E+1	1.191735E-5	0.000000E+0
1.760000E+1	1.854241E+1	1.208516E-5	0.000000E+0
1.780000E+1	1.854218E+1	1.225203E-5	0.000000E+0
1.800000E+1	1.854218E+1	1.241834E-5	0.000000E+0
1.820000E+1	1.854299E+1	1.258386E-5	0.000000E+0
1.840000E+1	1.854299E+1	1.274971E-5	0.000000E+0
1.860000E+1	1.854299E+1	1.291468E-5	0.000000E+0
1.880000E+1	1.854301E+1	1.307600E-5	0.000000E+0
1.900000E+1	1.854301E+1	1.324161E-5	0.000000E+0
END