IV MEASUREMENT
:start
2016-11-15 14:17:44
:stop
2016-11-15 14:25:03
:device
M200Y_06_HPKTS_2_MOSFET
:tester
Martin
:atmosphere
Air
:environment
Probe Station
:Instruments
VI Kei6487,CV AgE4980A,GI NM,T Kei2700
:Comment
circular, nMOSFET, Ids vs Vgate, Vback= -3.8V,Vds=0.05V, Bef.irrad.
 power lower < 1mW, probe station, wait. time 0 sec,after gluing
Annealing time [min]:
0@0
:temperature [C]
18.735341
:start,stop voltage [V] & number of points
-6.000000,19.000000,126
:Voltage increment and increment speed
1.000000,0.500000
:polarity and ramp mode
negative,0
:Current meter range
Auto
:Averaging (int,ext,NPLC,Median Rank)
3,5
3.000000
3
:legend
bias [V],T[C],Current[Amp],Guard Current[Amp]
BEGIN
-6.000000E+0	1.872587E+1	-4.196833E-12	0.000000E+0
-5.800000E+0	1.872587E+1	-4.203184E-12	0.000000E+0
-5.600000E+0	1.872547E+1	-4.145716E-12	0.000000E+0
-5.400000E+0	1.872547E+1	-4.111811E-12	0.000000E+0
-5.200000E+0	1.872547E+1	-4.119036E-12	0.000000E+0
-5.000000E+0	1.872602E+1	-4.150743E-12	0.000000E+0
-4.800000E+0	1.872602E+1	-4.154490E-12	0.000000E+0
-4.600000E+0	1.872664E+1	-4.178455E-12	0.000000E+0
-4.400000E+0	1.872664E+1	-4.222123E-12	0.000000E+0
-4.200000E+0	1.872664E+1	-4.302455E-12	0.000000E+0
-4.000000E+0	1.872734E+1	-4.406327E-12	0.000000E+0
-3.800000E+0	1.872734E+1	-4.545584E-12	0.000000E+0
-3.600000E+0	1.872734E+1	-4.638349E-12	0.000000E+0
-3.400000E+0	1.872780E+1	-5.211268E-12	0.000000E+0
-3.200000E+0	1.872780E+1	-6.224088E-12	0.000000E+0
-3.000000E+0	1.872780E+1	-7.878558E-12	0.000000E+0
-2.800000E+0	1.872793E+1	-9.957985E-12	0.000000E+0
-2.600000E+0	1.872793E+1	-1.222532E-11	0.000000E+0
-2.400000E+0	1.872818E+1	-1.464591E-11	0.000000E+0
-2.200000E+0	1.872818E+1	-1.721557E-11	0.000000E+0
-2.000000E+0	1.872818E+1	-1.994372E-11	0.000000E+0
-1.800000E+0	1.872880E+1	-2.241944E-11	0.000000E+0
-1.600000E+0	1.872880E+1	-2.449222E-11	0.000000E+0
-1.400000E+0	1.872880E+1	-2.596678E-11	0.000000E+0
-1.200000E+0	1.872915E+1	-2.700264E-11	0.000000E+0
-1.000000E+0	1.872915E+1	-2.776571E-11	0.000000E+0
-8.000000E-1	1.872951E+1	-2.849566E-11	0.000000E+0
-6.000000E-1	1.872951E+1	-2.917999E-11	0.000000E+0
-4.000000E-1	1.872951E+1	-2.989484E-11	0.000000E+0
-2.000000E-1	1.873068E+1	-3.059241E-11	0.000000E+0
3.053113E-15	1.873068E+1	-3.126065E-11	0.000000E+0
2.000000E-1	1.873068E+1	-3.194126E-11	0.000000E+0
4.000000E-1	1.873090E+1	-3.266398E-11	0.000000E+0
6.000000E-1	1.873090E+1	-3.334069E-11	0.000000E+0
8.000000E-1	1.873090E+1	-3.410864E-11	0.000000E+0
1.000000E+0	1.873091E+1	-3.485468E-11	0.000000E+0
1.200000E+0	1.873091E+1	-3.556042E-11	0.000000E+0
1.400000E+0	1.873156E+1	-3.630518E-11	0.000000E+0
1.600000E+0	1.873156E+1	-3.696673E-11	0.000000E+0
1.800000E+0	1.873156E+1	-3.772439E-11	0.000000E+0
2.000000E+0	1.873157E+1	-3.843440E-11	0.000000E+0
2.200000E+0	1.873157E+1	-3.911260E-11	0.000000E+0
2.400000E+0	1.873157E+1	-3.972255E-11	0.000000E+0
2.600000E+0	1.873262E+1	-4.018466E-11	0.000000E+0
2.800000E+0	1.873262E+1	-4.019682E-11	0.000000E+0
3.000000E+0	1.873236E+1	-3.949363E-11	0.000000E+0
3.200000E+0	1.873236E+1	-3.871945E-11	0.000000E+0
3.400000E+0	1.873236E+1	-3.825410E-11	0.000000E+0
3.600000E+0	1.873308E+1	-3.790108E-11	0.000000E+0
3.800000E+0	1.873308E+1	-3.758929E-11	0.000000E+0
4.000000E+0	1.873308E+1	-3.728217E-11	0.000000E+0
4.200000E+0	1.873291E+1	-3.699557E-11	0.000000E+0
4.400000E+0	1.873291E+1	-3.669558E-11	0.000000E+0
4.600000E+0	1.873291E+1	-3.641488E-11	0.000000E+0
4.800000E+0	1.873398E+1	-3.609132E-11	0.000000E+0
5.000000E+0	1.873398E+1	-3.575432E-11	0.000000E+0
5.200000E+0	1.873476E+1	-2.835867E-11	0.000000E+0
5.400000E+0	1.873476E+1	2.287003E-9	0.000000E+0
5.600000E+0	1.873476E+1	6.043237E-8	0.000000E+0
5.800000E+0	1.873467E+1	2.065046E-7	0.000000E+0
6.000000E+0	1.873467E+1	3.957065E-7	0.000000E+0
6.200000E+0	1.873477E+1	5.998560E-7	0.000000E+0
6.400000E+0	1.873477E+1	8.108463E-7	0.000000E+0
6.600000E+0	1.873477E+1	1.025424E-6	0.000000E+0
6.800000E+0	1.873563E+1	1.241108E-6	0.000000E+0
7.000000E+0	1.873563E+1	1.457974E-6	0.000000E+0
7.200000E+0	1.873563E+1	1.674497E-6	0.000000E+0
7.400000E+0	1.873585E+1	1.890797E-6	0.000000E+0
7.600000E+0	1.873585E+1	2.107066E-6	0.000000E+0
7.800000E+0	1.873632E+1	2.322118E-6	0.000000E+0
8.000000E+0	1.873632E+1	2.537019E-6	0.000000E+0
8.200000E+0	1.873632E+1	2.751468E-6	0.000000E+0
8.400000E+0	1.873678E+1	2.963904E-6	0.000000E+0
8.600000E+0	1.873678E+1	3.175174E-6	0.000000E+0
8.800000E+0	1.873678E+1	3.385736E-6	0.000000E+0
9.000000E+0	1.873737E+1	3.595244E-6	0.000000E+0
9.200000E+0	1.873737E+1	3.803396E-6	0.000000E+0
9.400000E+0	1.873737E+1	4.010314E-6	0.000000E+0
9.600000E+0	1.873700E+1	4.215796E-6	0.000000E+0
9.800000E+0	1.873700E+1	4.420924E-6	0.000000E+0
1.000000E+1	1.873795E+1	4.624205E-6	0.000000E+0
1.020000E+1	1.873795E+1	4.827302E-6	0.000000E+0
1.040000E+1	1.873795E+1	5.030110E-6	0.000000E+0
1.060000E+1	1.873874E+1	5.228150E-6	0.000000E+0
1.080000E+1	1.873874E+1	5.428315E-6	0.000000E+0
1.100000E+1	1.873874E+1	5.627025E-6	0.000000E+0
1.120000E+1	1.873945E+1	5.823838E-6	0.000000E+0
1.140000E+1	1.873945E+1	6.018926E-6	0.000000E+0
1.160000E+1	1.873945E+1	6.214009E-6	0.000000E+0
1.180000E+1	1.873913E+1	6.407623E-6	0.000000E+0
1.200000E+1	1.873913E+1	6.600074E-6	0.000000E+0
1.220000E+1	1.874028E+1	6.791494E-6	0.000000E+0
1.240000E+1	1.874028E+1	6.982552E-6	0.000000E+0
1.260000E+1	1.874028E+1	7.179884E-6	0.000000E+0
1.280000E+1	1.874058E+1	7.369434E-6	0.000000E+0
1.300000E+1	1.874058E+1	7.558065E-6	0.000000E+0
1.320000E+1	1.874058E+1	7.743862E-6	0.000000E+0
1.340000E+1	1.874084E+1	7.929593E-6	0.000000E+0
1.360000E+1	1.874084E+1	8.114247E-6	0.000000E+0
1.380000E+1	1.874118E+1	8.298825E-6	0.000000E+0
1.400000E+1	1.874118E+1	8.480551E-6	0.000000E+0
1.420000E+1	1.874118E+1	8.660504E-6	0.000000E+0
1.440000E+1	1.874211E+1	8.842233E-6	0.000000E+0
1.460000E+1	1.874211E+1	9.021577E-6	0.000000E+0
1.480000E+1	1.874211E+1	9.201166E-6	0.000000E+0
1.500000E+1	1.874260E+1	9.379220E-6	0.000000E+0
1.520000E+1	1.874260E+1	9.555168E-6	0.000000E+0
1.540000E+1	1.874260E+1	9.731456E-6	0.000000E+0
1.560000E+1	1.874270E+1	9.907033E-6	0.000000E+0
1.580000E+1	1.874270E+1	1.008287E-5	0.000000E+0
1.600000E+1	1.874357E+1	1.025868E-5	0.000000E+0
1.620000E+1	1.874357E+1	1.043214E-5	0.000000E+0
1.640000E+1	1.874357E+1	1.060606E-5	0.000000E+0
1.660000E+1	1.874409E+1	1.077751E-5	0.000000E+0
1.680000E+1	1.874409E+1	1.094891E-5	0.000000E+0
1.700000E+1	1.874409E+1	1.111846E-5	0.000000E+0
1.720000E+1	1.874434E+1	1.128957E-5	0.000000E+0
1.740000E+1	1.874434E+1	1.145726E-5	0.000000E+0
1.760000E+1	1.874434E+1	1.162649E-5	0.000000E+0
1.780000E+1	1.874490E+1	1.179468E-5	0.000000E+0
1.800000E+1	1.874490E+1	1.195998E-5	0.000000E+0
1.820000E+1	1.874526E+1	1.212593E-5	0.000000E+0
1.840000E+1	1.874526E+1	1.229177E-5	0.000000E+0
1.860000E+1	1.874526E+1	1.245667E-5	0.000000E+0
1.880000E+1	1.874605E+1	1.262034E-5	0.000000E+0
1.900000E+1	1.874605E+1	1.278422E-5	0.000000E+0
END