IV MEASUREMENT
:start
2016-11-15 11:50:26
:stop
2016-11-15 11:57:45
:device
M200Y_06_HPKTS_2_MOSFET
:tester
Martin
:atmosphere
Air
:environment
Probe Station
:Instruments
VI Kei6487,CV AgE4980A,GI NM,T Kei2700
:Comment
circular, nMOSFET, Ids vs Vgate, Vback= -0.1V,Vds=0.05V, Bef.irrad.
 power lower < 1mW, probe station, wait. time 0 sec,after gluing
Annealing time [min]:
0@0
:temperature [C]
18.425549
:start,stop voltage [V] & number of points
-6.000000,19.000000,126
:Voltage increment and increment speed
1.000000,0.500000
:polarity and ramp mode
negative,0
:Current meter range
Auto
:Averaging (int,ext,NPLC,Median Rank)
3,5
3.000000
3
:legend
bias [V],T[C],Current[Amp],Guard Current[Amp]
BEGIN
-6.000000E+0	1.841826E+1	-2.711451E-12	0.000000E+0
-5.800000E+0	1.841826E+1	-2.766315E-12	0.000000E+0
-5.600000E+0	1.841853E+1	-2.724780E-12	0.000000E+0
-5.400000E+0	1.841853E+1	-2.632891E-12	0.000000E+0
-5.200000E+0	1.841853E+1	-2.668905E-12	0.000000E+0
-5.000000E+0	1.841897E+1	-2.714413E-12	0.000000E+0
-4.800000E+0	1.841897E+1	-2.692288E-12	0.000000E+0
-4.600000E+0	1.841902E+1	-2.606009E-12	0.000000E+0
-4.400000E+0	1.841902E+1	-2.812585E-12	0.000000E+0
-4.200000E+0	1.841902E+1	-2.675122E-12	0.000000E+0
-4.000000E+0	1.841963E+1	-2.687015E-12	0.000000E+0
-3.800000E+0	1.841963E+1	-2.690560E-12	0.000000E+0
-3.600000E+0	1.841963E+1	-2.652682E-12	0.000000E+0
-3.400000E+0	1.841981E+1	-2.646264E-12	0.000000E+0
-3.200000E+0	1.841981E+1	-2.637311E-12	0.000000E+0
-3.000000E+0	1.841981E+1	-2.629166E-12	0.000000E+0
-2.800000E+0	1.842001E+1	-2.615276E-12	0.000000E+0
-2.600000E+0	1.842001E+1	-2.533103E-12	0.000000E+0
-2.400000E+0	1.842055E+1	-2.611865E-12	0.000000E+0
-2.200000E+0	1.842055E+1	-2.558482E-12	0.000000E+0
-2.000000E+0	1.842055E+1	-2.565057E-12	0.000000E+0
-1.800000E+0	1.842051E+1	-2.601858E-12	0.000000E+0
-1.600000E+0	1.842051E+1	-2.582559E-12	0.000000E+0
-1.400000E+0	1.842051E+1	-2.552536E-12	0.000000E+0
-1.200000E+0	1.842109E+1	-2.547441E-12	0.000000E+0
-1.000000E+0	1.842109E+1	-2.571788E-12	0.000000E+0
-8.000000E-1	1.842144E+1	-2.547374E-12	0.000000E+0
-6.000000E-1	1.842144E+1	-2.603989E-12	0.000000E+0
-4.000000E-1	1.842144E+1	-2.690515E-12	0.000000E+0
-2.000000E-1	1.842145E+1	-2.760593E-12	0.000000E+0
3.053113E-15	1.842145E+1	-2.891347E-12	0.000000E+0
2.000000E-1	1.842145E+1	-3.425516E-12	0.000000E+0
4.000000E-1	1.842193E+1	-4.398620E-12	0.000000E+0
6.000000E-1	1.842193E+1	-6.001665E-12	0.000000E+0
8.000000E-1	1.842193E+1	-8.039562E-12	0.000000E+0
1.000000E+0	1.842195E+1	-1.020998E-11	0.000000E+0
1.200000E+0	1.842195E+1	-1.243487E-11	0.000000E+0
1.400000E+0	1.842239E+1	-1.447247E-11	0.000000E+0
1.600000E+0	1.842239E+1	-1.450831E-11	0.000000E+0
1.800000E+0	1.842239E+1	-3.474096E-12	0.000000E+0
2.000000E+0	1.842292E+1	6.773717E-11	0.000000E+0
2.200000E+0	1.842292E+1	4.820252E-10	0.000000E+0
2.400000E+0	1.842292E+1	2.822454E-9	0.000000E+0
2.600000E+0	1.842299E+1	1.453341E-8	0.000000E+0
2.800000E+0	1.842299E+1	5.624739E-8	0.000000E+0
3.000000E+0	1.842348E+1	1.487552E-7	0.000000E+0
3.200000E+0	1.842348E+1	2.903770E-7	0.000000E+0
3.400000E+0	1.842348E+1	4.657335E-7	0.000000E+0
3.600000E+0	1.842384E+1	6.607617E-7	0.000000E+0
3.800000E+0	1.842384E+1	8.681601E-7	0.000000E+0
4.000000E+0	1.842384E+1	1.082499E-6	0.000000E+0
4.200000E+0	1.842418E+1	1.301463E-6	0.000000E+0
4.400000E+0	1.842418E+1	1.523081E-6	0.000000E+0
4.600000E+0	1.842436E+1	1.745971E-6	0.000000E+0
4.800000E+0	1.842436E+1	1.970123E-6	0.000000E+0
5.000000E+0	1.842436E+1	2.195691E-6	0.000000E+0
5.200000E+0	1.842496E+1	2.428825E-6	0.000000E+0
5.400000E+0	1.842496E+1	2.655102E-6	0.000000E+0
5.600000E+0	1.842496E+1	2.878562E-6	0.000000E+0
5.800000E+0	1.842542E+1	3.101364E-6	0.000000E+0
6.000000E+0	1.842542E+1	3.322973E-6	0.000000E+0
6.200000E+0	1.842589E+1	3.543175E-6	0.000000E+0
6.400000E+0	1.842589E+1	3.763044E-6	0.000000E+0
6.600000E+0	1.842589E+1	3.981184E-6	0.000000E+0
6.800000E+0	1.842583E+1	4.198516E-6	0.000000E+0
7.000000E+0	1.842583E+1	4.414647E-6	0.000000E+0
7.200000E+0	1.842583E+1	4.629056E-6	0.000000E+0
7.400000E+0	1.842655E+1	4.842235E-6	0.000000E+0
7.600000E+0	1.842655E+1	5.054489E-6	0.000000E+0
7.800000E+0	1.842655E+1	5.265472E-6	0.000000E+0
8.000000E+0	1.842667E+1	5.475670E-6	0.000000E+0
8.200000E+0	1.842667E+1	5.685202E-6	0.000000E+0
8.400000E+0	1.842661E+1	5.893200E-6	0.000000E+0
8.600000E+0	1.842661E+1	6.098886E-6	0.000000E+0
8.800000E+0	1.842661E+1	6.303736E-6	0.000000E+0
9.000000E+0	1.842719E+1	6.507027E-6	0.000000E+0
9.200000E+0	1.842719E+1	6.709665E-6	0.000000E+0
9.400000E+0	1.842719E+1	6.911428E-6	0.000000E+0
9.600000E+0	1.842708E+1	7.111249E-6	0.000000E+0
9.800000E+0	1.842708E+1	7.310281E-6	0.000000E+0
1.000000E+1	1.842842E+1	7.509088E-6	0.000000E+0
1.020000E+1	1.842842E+1	7.705847E-6	0.000000E+0
1.040000E+1	1.842842E+1	7.902175E-6	0.000000E+0
1.060000E+1	1.842840E+1	8.096891E-6	0.000000E+0
1.080000E+1	1.842840E+1	8.289892E-6	0.000000E+0
1.100000E+1	1.842840E+1	8.483376E-6	0.000000E+0
1.120000E+1	1.842888E+1	8.674889E-6	0.000000E+0
1.140000E+1	1.842888E+1	8.865085E-6	0.000000E+0
1.160000E+1	1.842888E+1	9.054751E-6	0.000000E+0
1.180000E+1	1.842867E+1	9.242746E-6	0.000000E+0
1.200000E+1	1.842867E+1	9.430301E-6	0.000000E+0
1.220000E+1	1.842862E+1	9.614626E-6	0.000000E+0
1.240000E+1	1.842862E+1	9.801378E-6	0.000000E+0
1.260000E+1	1.842862E+1	9.994605E-6	0.000000E+0
1.280000E+1	1.842917E+1	1.017948E-5	0.000000E+0
1.300000E+1	1.842917E+1	1.036204E-5	0.000000E+0
1.320000E+1	1.842917E+1	1.054353E-5	0.000000E+0
1.340000E+1	1.843013E+1	1.072538E-5	0.000000E+0
1.360000E+1	1.843013E+1	1.090660E-5	0.000000E+0
1.380000E+1	1.843013E+1	1.108444E-5	0.000000E+0
1.400000E+1	1.843006E+1	1.126250E-5	0.000000E+0
1.420000E+1	1.843006E+1	1.143958E-5	0.000000E+0
1.440000E+1	1.843045E+1	1.161861E-5	0.000000E+0
1.460000E+1	1.843045E+1	1.179627E-5	0.000000E+0
1.480000E+1	1.843045E+1	1.197307E-5	0.000000E+0
1.500000E+1	1.843044E+1	1.214673E-5	0.000000E+0
1.520000E+1	1.843044E+1	1.232108E-5	0.000000E+0
1.540000E+1	1.843044E+1	1.249392E-5	0.000000E+0
1.560000E+1	1.843066E+1	1.266697E-5	0.000000E+0
1.580000E+1	1.843066E+1	1.283864E-5	0.000000E+0
1.600000E+1	1.843121E+1	1.300811E-5	0.000000E+0
1.620000E+1	1.843121E+1	1.317841E-5	0.000000E+0
1.640000E+1	1.843121E+1	1.334771E-5	0.000000E+0
1.660000E+1	1.843111E+1	1.351719E-5	0.000000E+0
1.680000E+1	1.843111E+1	1.368465E-5	0.000000E+0
1.700000E+1	1.843111E+1	1.384907E-5	0.000000E+0
1.720000E+1	1.843214E+1	1.401510E-5	0.000000E+0
1.740000E+1	1.843214E+1	1.418128E-5	0.000000E+0
1.760000E+1	1.843214E+1	1.434537E-5	0.000000E+0
1.780000E+1	1.843259E+1	1.450889E-5	0.000000E+0
1.800000E+1	1.843259E+1	1.467085E-5	0.000000E+0
1.820000E+1	1.843287E+1	1.483256E-5	0.000000E+0
1.840000E+1	1.843287E+1	1.499360E-5	0.000000E+0
1.860000E+1	1.843287E+1	1.515283E-5	0.000000E+0
1.880000E+1	1.843284E+1	1.531161E-5	0.000000E+0
1.900000E+1	1.843284E+1	1.547413E-5	0.000000E+0
END