IV MEASUREMENT
:start
2016-11-15 14:27:20
:stop
2016-11-15 14:34:38
:device
M200Y_06_HPKTS_2_MOSFET
:tester
Martin
:atmosphere
Air
:environment
Probe Station
:Instruments
VI Kei6487,CV AgE4980A,GI NM,T Kei2700
:Comment
circular, nMOSFET, Ids vs Vgate, Vback= -5V,Vds=0.05V, Bef.irrad.
 power lower < 1mW, probe station, wait. time 0 sec,after gluing
Annealing time [min]:
0@0
:temperature [C]
18.760773
:start,stop voltage [V] & number of points
-6.000000,19.000000,126
:Voltage increment and increment speed
1.000000,0.500000
:polarity and ramp mode
negative,0
:Current meter range
Auto
:Averaging (int,ext,NPLC,Median Rank)
3,5
3.000000
3
:legend
bias [V],T[C],Current[Amp],Guard Current[Amp]
BEGIN
-6.000000E+0	1.875078E+1	-4.586000E-12	0.000000E+0
-5.800000E+0	1.875078E+1	-4.583285E-12	0.000000E+0
-5.600000E+0	1.875115E+1	-4.595223E-12	0.000000E+0
-5.400000E+0	1.875115E+1	-4.667501E-12	0.000000E+0
-5.200000E+0	1.875115E+1	-4.765200E-12	0.000000E+0
-5.000000E+0	1.875179E+1	-4.854622E-12	0.000000E+0
-4.800000E+0	1.875179E+1	-5.095687E-12	0.000000E+0
-4.600000E+0	1.875213E+1	-5.534037E-12	0.000000E+0
-4.400000E+0	1.875213E+1	-6.602956E-12	0.000000E+0
-4.200000E+0	1.875213E+1	-8.322818E-12	0.000000E+0
-4.000000E+0	1.875264E+1	-1.039071E-11	0.000000E+0
-3.800000E+0	1.875264E+1	-1.262340E-11	0.000000E+0
-3.600000E+0	1.875264E+1	-1.501850E-11	0.000000E+0
-3.400000E+0	1.875347E+1	-1.761637E-11	0.000000E+0
-3.200000E+0	1.875347E+1	-2.030992E-11	0.000000E+0
-3.000000E+0	1.875347E+1	-2.283126E-11	0.000000E+0
-2.800000E+0	1.875327E+1	-2.486240E-11	0.000000E+0
-2.600000E+0	1.875327E+1	-2.639417E-11	0.000000E+0
-2.400000E+0	1.875358E+1	-2.737353E-11	0.000000E+0
-2.200000E+0	1.875358E+1	-2.818742E-11	0.000000E+0
-2.000000E+0	1.875358E+1	-2.888400E-11	0.000000E+0
-1.800000E+0	1.875451E+1	-2.959942E-11	0.000000E+0
-1.600000E+0	1.875451E+1	-3.028162E-11	0.000000E+0
-1.400000E+0	1.875451E+1	-3.102925E-11	0.000000E+0
-1.200000E+0	1.875463E+1	-3.169123E-11	0.000000E+0
-1.000000E+0	1.875463E+1	-3.236864E-11	0.000000E+0
-8.000000E-1	1.875544E+1	-3.311998E-11	0.000000E+0
-6.000000E-1	1.875544E+1	-3.381511E-11	0.000000E+0
-4.000000E-1	1.875544E+1	-3.458841E-11	0.000000E+0
-2.000000E-1	1.875550E+1	-3.530137E-11	0.000000E+0
3.053113E-15	1.875550E+1	-3.597037E-11	0.000000E+0
2.000000E-1	1.875550E+1	-3.667639E-11	0.000000E+0
4.000000E-1	1.875666E+1	-3.742847E-11	0.000000E+0
6.000000E-1	1.875666E+1	-3.816540E-11	0.000000E+0
8.000000E-1	1.875666E+1	-3.884846E-11	0.000000E+0
1.000000E+0	1.875673E+1	-3.950396E-11	0.000000E+0
1.200000E+0	1.875673E+1	-4.015045E-11	0.000000E+0
1.400000E+0	1.875669E+1	-4.058728E-11	0.000000E+0
1.600000E+0	1.875669E+1	-4.065392E-11	0.000000E+0
1.800000E+0	1.875669E+1	-4.001703E-11	0.000000E+0
2.000000E+0	1.875722E+1	-3.921640E-11	0.000000E+0
2.200000E+0	1.875722E+1	-3.878498E-11	0.000000E+0
2.400000E+0	1.875722E+1	-3.844238E-11	0.000000E+0
2.600000E+0	1.875798E+1	-3.816512E-11	0.000000E+0
2.800000E+0	1.875798E+1	-3.788249E-11	0.000000E+0
3.000000E+0	1.875805E+1	-3.762232E-11	0.000000E+0
3.200000E+0	1.875805E+1	-3.741472E-11	0.000000E+0
3.400000E+0	1.875805E+1	-3.721926E-11	0.000000E+0
3.600000E+0	1.875854E+1	-3.697381E-11	0.000000E+0
3.800000E+0	1.875854E+1	-3.672646E-11	0.000000E+0
4.000000E+0	1.875854E+1	-3.647909E-11	0.000000E+0
4.200000E+0	1.875930E+1	-3.625939E-11	0.000000E+0
4.400000E+0	1.875930E+1	-3.600607E-11	0.000000E+0
4.600000E+0	1.875930E+1	-3.574764E-11	0.000000E+0
4.800000E+0	1.875958E+1	-3.546479E-11	0.000000E+0
5.000000E+0	1.875958E+1	-3.516166E-11	0.000000E+0
5.200000E+0	1.875973E+1	-3.418270E-11	0.000000E+0
5.400000E+0	1.875973E+1	2.368875E-10	0.000000E+0
5.600000E+0	1.875973E+1	2.562950E-8	0.000000E+0
5.800000E+0	1.875994E+1	1.438850E-7	0.000000E+0
6.000000E+0	1.875994E+1	3.218312E-7	0.000000E+0
6.200000E+0	1.875994E+1	5.216268E-7	0.000000E+0
6.400000E+0	1.876029E+1	7.303157E-7	0.000000E+0
6.600000E+0	1.876029E+1	9.434512E-7	0.000000E+0
6.800000E+0	1.876086E+1	1.158524E-6	0.000000E+0
7.000000E+0	1.876086E+1	1.374911E-6	0.000000E+0
7.200000E+0	1.876086E+1	1.591430E-6	0.000000E+0
7.400000E+0	1.876231E+1	1.807703E-6	0.000000E+0
7.600000E+0	1.876231E+1	2.024002E-6	0.000000E+0
7.800000E+0	1.876231E+1	2.237840E-6	0.000000E+0
8.000000E+0	1.876184E+1	2.452021E-6	0.000000E+0
8.200000E+0	1.876184E+1	2.665933E-6	0.000000E+0
8.400000E+0	1.876300E+1	2.878411E-6	0.000000E+0
8.600000E+0	1.876300E+1	3.090536E-6	0.000000E+0
8.800000E+0	1.876300E+1	3.301399E-6	0.000000E+0
9.000000E+0	1.876287E+1	3.510448E-6	0.000000E+0
9.200000E+0	1.876287E+1	3.718139E-6	0.000000E+0
9.400000E+0	1.876287E+1	3.925273E-6	0.000000E+0
9.600000E+0	1.876363E+1	4.131858E-6	0.000000E+0
9.800000E+0	1.876363E+1	4.336144E-6	0.000000E+0
1.000000E+1	1.876363E+1	4.540442E-6	0.000000E+0
1.020000E+1	1.876324E+1	4.742924E-6	0.000000E+0
1.040000E+1	1.876324E+1	4.944388E-6	0.000000E+0
1.060000E+1	1.876389E+1	5.144495E-6	0.000000E+0
1.080000E+1	1.876389E+1	5.343591E-6	0.000000E+0
1.100000E+1	1.876389E+1	5.542195E-6	0.000000E+0
1.120000E+1	1.876469E+1	5.738725E-6	0.000000E+0
1.140000E+1	1.876469E+1	5.935062E-6	0.000000E+0
1.160000E+1	1.876469E+1	6.130122E-6	0.000000E+0
1.180000E+1	1.876574E+1	6.323948E-6	0.000000E+0
1.200000E+1	1.876574E+1	6.516926E-6	0.000000E+0
1.220000E+1	1.876556E+1	6.708096E-6	0.000000E+0
1.240000E+1	1.876556E+1	6.897534E-6	0.000000E+0
1.260000E+1	1.876556E+1	7.093177E-6	0.000000E+0
1.280000E+1	1.876618E+1	7.283360E-6	0.000000E+0
1.300000E+1	1.876618E+1	7.470062E-6	0.000000E+0
1.320000E+1	1.876618E+1	7.656746E-6	0.000000E+0
1.340000E+1	1.876592E+1	7.842807E-6	0.000000E+0
1.360000E+1	1.876592E+1	8.027589E-6	0.000000E+0
1.380000E+1	1.876592E+1	8.211880E-6	0.000000E+0
1.400000E+1	1.876635E+1	8.395415E-6	0.000000E+0
1.420000E+1	1.876635E+1	8.577537E-6	0.000000E+0
1.440000E+1	1.876710E+1	8.758247E-6	0.000000E+0
1.460000E+1	1.876710E+1	8.938860E-6	0.000000E+0
1.480000E+1	1.876710E+1	9.116784E-6	0.000000E+0
1.500000E+1	1.876740E+1	9.296161E-6	0.000000E+0
1.520000E+1	1.876740E+1	9.475080E-6	0.000000E+0
1.540000E+1	1.876740E+1	9.652704E-6	0.000000E+0
1.560000E+1	1.876794E+1	9.829759E-6	0.000000E+0
1.580000E+1	1.876794E+1	1.000453E-5	0.000000E+0
1.600000E+1	1.876794E+1	1.017864E-5	0.000000E+0
1.620000E+1	1.876853E+1	1.034966E-5	0.000000E+0
1.640000E+1	1.876853E+1	1.052228E-5	0.000000E+0
1.660000E+1	1.876885E+1	1.069495E-5	0.000000E+0
1.680000E+1	1.876885E+1	1.086653E-5	0.000000E+0
1.700000E+1	1.876885E+1	1.103716E-5	0.000000E+0
1.720000E+1	1.876928E+1	1.120625E-5	0.000000E+0
1.740000E+1	1.876928E+1	1.137458E-5	0.000000E+0
1.760000E+1	1.876928E+1	1.154151E-5	0.000000E+0
1.780000E+1	1.877006E+1	1.170976E-5	0.000000E+0
1.800000E+1	1.877006E+1	1.187675E-5	0.000000E+0
1.820000E+1	1.877036E+1	1.204135E-5	0.000000E+0
1.840000E+1	1.877036E+1	1.220643E-5	0.000000E+0
1.860000E+1	1.877036E+1	1.237138E-5	0.000000E+0
1.880000E+1	1.877131E+1	1.253661E-5	0.000000E+0
1.900000E+1	1.877131E+1	1.270039E-5	0.000000E+0
END