IV MEASUREMENT
:start
2016-11-15 12:06:41
:stop
2016-11-15 12:13:59
:device
M200Y_06_HPKTS_2_MOSFET
:tester
Martin
:atmosphere
Air
:environment
Probe Station
:Instruments
VI Kei6487,CV AgE4980A,GI NM,T Kei2700
:Comment
circular, nMOSFET, Ids vs Vgate, Vback= -0.4V,Vds=0.05V, Bef.irrad.
 power lower < 1mW, probe station, wait. time 0 sec,after gluing
Annealing time [min]:
0@0
:temperature [C]
18.461998
:start,stop voltage [V] & number of points
-6.000000,19.000000,126
:Voltage increment and increment speed
1.000000,0.500000
:polarity and ramp mode
negative,0
:Current meter range
Auto
:Averaging (int,ext,NPLC,Median Rank)
3,5
3.000000
3
:legend
bias [V],T[C],Current[Amp],Guard Current[Amp]
BEGIN
-6.000000E+0	1.845447E+1	-2.957094E-12	0.000000E+0
-5.800000E+0	1.845447E+1	-2.921505E-12	0.000000E+0
-5.600000E+0	1.845486E+1	-2.955703E-12	0.000000E+0
-5.400000E+0	1.845486E+1	-2.936450E-12	0.000000E+0
-5.200000E+0	1.845486E+1	-2.939255E-12	0.000000E+0
-5.000000E+0	1.845474E+1	-2.924266E-12	0.000000E+0
-4.800000E+0	1.845474E+1	-2.874787E-12	0.000000E+0
-4.600000E+0	1.845599E+1	-2.894735E-12	0.000000E+0
-4.400000E+0	1.845599E+1	-2.847748E-12	0.000000E+0
-4.200000E+0	1.845599E+1	-2.830177E-12	0.000000E+0
-4.000000E+0	1.845544E+1	-2.837492E-12	0.000000E+0
-3.800000E+0	1.845544E+1	-2.815187E-12	0.000000E+0
-3.600000E+0	1.845544E+1	-2.826632E-12	0.000000E+0
-3.400000E+0	1.845619E+1	-2.846065E-12	0.000000E+0
-3.200000E+0	1.845619E+1	-2.804192E-12	0.000000E+0
-3.000000E+0	1.845619E+1	-2.769165E-12	0.000000E+0
-2.800000E+0	1.845683E+1	-2.814111E-12	0.000000E+0
-2.600000E+0	1.845683E+1	-2.828741E-12	0.000000E+0
-2.400000E+0	1.845724E+1	-2.794813E-12	0.000000E+0
-2.200000E+0	1.845724E+1	-2.758820E-12	0.000000E+0
-2.000000E+0	1.845724E+1	-2.724016E-12	0.000000E+0
-1.800000E+0	1.845724E+1	-2.731085E-12	0.000000E+0
-1.600000E+0	1.845724E+1	-2.736269E-12	0.000000E+0
-1.400000E+0	1.845724E+1	-2.775493E-12	0.000000E+0
-1.200000E+0	1.845771E+1	-2.759022E-12	0.000000E+0
-1.000000E+0	1.845771E+1	-2.786218E-12	0.000000E+0
-8.000000E-1	1.845784E+1	-2.847096E-12	0.000000E+0
-6.000000E-1	1.845784E+1	-2.926217E-12	0.000000E+0
-4.000000E-1	1.845784E+1	-3.067765E-12	0.000000E+0
-2.000000E-1	1.845851E+1	-3.372603E-12	0.000000E+0
3.053113E-15	1.845851E+1	-4.046210E-12	0.000000E+0
2.000000E-1	1.845851E+1	-5.332365E-12	0.000000E+0
4.000000E-1	1.845896E+1	-7.214825E-12	0.000000E+0
6.000000E-1	1.845896E+1	-9.313667E-12	0.000000E+0
8.000000E-1	1.845896E+1	-1.164426E-11	0.000000E+0
1.000000E+0	1.845887E+1	-1.401695E-11	0.000000E+0
1.200000E+0	1.845887E+1	-1.667373E-11	0.000000E+0
1.400000E+0	1.845928E+1	-1.928367E-11	0.000000E+0
1.600000E+0	1.845928E+1	-2.161593E-11	0.000000E+0
1.800000E+0	1.845928E+1	-2.338800E-11	0.000000E+0
2.000000E+0	1.845942E+1	-2.458640E-11	0.000000E+0
2.200000E+0	1.845942E+1	-2.544103E-11	0.000000E+0
2.400000E+0	1.845942E+1	-2.562694E-11	0.000000E+0
2.600000E+0	1.845965E+1	-2.243306E-11	0.000000E+0
2.800000E+0	1.845965E+1	5.577418E-12	0.000000E+0
3.000000E+0	1.846011E+1	2.231966E-10	0.000000E+0
3.200000E+0	1.846011E+1	1.873004E-9	0.000000E+0
3.400000E+0	1.846011E+1	1.263669E-8	0.000000E+0
3.600000E+0	1.845990E+1	5.663030E-8	0.000000E+0
3.800000E+0	1.845990E+1	1.564658E-7	0.000000E+0
4.000000E+0	1.845990E+1	3.052459E-7	0.000000E+0
4.200000E+0	1.846016E+1	4.843409E-7	0.000000E+0
4.400000E+0	1.846016E+1	6.810539E-7	0.000000E+0
4.600000E+0	1.846144E+1	8.872144E-7	0.000000E+0
4.800000E+0	1.846144E+1	1.099600E-6	0.000000E+0
5.000000E+0	1.846144E+1	1.316328E-6	0.000000E+0
5.200000E+0	1.846095E+1	1.543538E-6	0.000000E+0
5.400000E+0	1.846095E+1	1.765290E-6	0.000000E+0
5.600000E+0	1.846095E+1	1.985756E-6	0.000000E+0
5.800000E+0	1.846192E+1	2.207144E-6	0.000000E+0
6.000000E+0	1.846192E+1	2.427900E-6	0.000000E+0
6.200000E+0	1.846175E+1	2.647953E-6	0.000000E+0
6.400000E+0	1.846175E+1	2.867399E-6	0.000000E+0
6.600000E+0	1.846175E+1	3.087181E-6	0.000000E+0
6.800000E+0	1.846221E+1	3.304325E-6	0.000000E+0
7.000000E+0	1.846221E+1	3.520005E-6	0.000000E+0
7.200000E+0	1.846221E+1	3.735308E-6	0.000000E+0
7.400000E+0	1.846292E+1	3.949702E-6	0.000000E+0
7.600000E+0	1.846292E+1	4.162580E-6	0.000000E+0
7.800000E+0	1.846292E+1	4.374798E-6	0.000000E+0
8.000000E+0	1.846275E+1	4.586227E-6	0.000000E+0
8.200000E+0	1.846275E+1	4.796915E-6	0.000000E+0
8.400000E+0	1.846343E+1	5.006522E-6	0.000000E+0
8.600000E+0	1.846343E+1	5.212838E-6	0.000000E+0
8.800000E+0	1.846343E+1	5.418665E-6	0.000000E+0
9.000000E+0	1.846341E+1	5.622958E-6	0.000000E+0
9.200000E+0	1.846341E+1	5.826996E-6	0.000000E+0
9.400000E+0	1.846341E+1	6.029079E-6	0.000000E+0
9.600000E+0	1.846394E+1	6.230751E-6	0.000000E+0
9.800000E+0	1.846394E+1	6.432226E-6	0.000000E+0
1.000000E+1	1.846418E+1	6.631233E-6	0.000000E+0
1.020000E+1	1.846418E+1	6.829211E-6	0.000000E+0
1.040000E+1	1.846418E+1	7.026260E-6	0.000000E+0
1.060000E+1	1.846451E+1	7.223017E-6	0.000000E+0
1.080000E+1	1.846451E+1	7.417607E-6	0.000000E+0
1.100000E+1	1.846451E+1	7.611726E-6	0.000000E+0
1.120000E+1	1.846481E+1	7.804757E-6	0.000000E+0
1.140000E+1	1.846481E+1	7.996590E-6	0.000000E+0
1.160000E+1	1.846481E+1	8.187555E-6	0.000000E+0
1.180000E+1	1.846494E+1	8.377735E-6	0.000000E+0
1.200000E+1	1.846494E+1	8.566721E-6	0.000000E+0
1.220000E+1	1.846562E+1	8.754706E-6	0.000000E+0
1.240000E+1	1.846562E+1	8.943524E-6	0.000000E+0
1.260000E+1	1.846562E+1	9.136921E-6	0.000000E+0
1.280000E+1	1.846562E+1	9.321056E-6	0.000000E+0
1.300000E+1	1.846562E+1	9.506010E-6	0.000000E+0
1.320000E+1	1.846562E+1	9.689422E-6	0.000000E+0
1.340000E+1	1.846598E+1	9.871064E-6	0.000000E+0
1.360000E+1	1.846598E+1	1.005230E-5	0.000000E+0
1.380000E+1	1.846598E+1	1.023240E-5	0.000000E+0
1.400000E+1	1.846653E+1	1.041183E-5	0.000000E+0
1.420000E+1	1.846653E+1	1.059085E-5	0.000000E+0
1.440000E+1	1.846647E+1	1.076864E-5	0.000000E+0
1.460000E+1	1.846647E+1	1.094711E-5	0.000000E+0
1.480000E+1	1.846647E+1	1.112204E-5	0.000000E+0
1.500000E+1	1.846718E+1	1.129661E-5	0.000000E+0
1.520000E+1	1.846718E+1	1.147181E-5	0.000000E+0
1.540000E+1	1.846718E+1	1.164546E-5	0.000000E+0
1.560000E+1	1.846737E+1	1.181597E-5	0.000000E+0
1.580000E+1	1.846737E+1	1.198825E-5	0.000000E+0
1.600000E+1	1.846798E+1	1.216124E-5	0.000000E+0
1.620000E+1	1.846798E+1	1.233205E-5	0.000000E+0
1.640000E+1	1.846798E+1	1.250144E-5	0.000000E+0
1.660000E+1	1.846860E+1	1.267013E-5	0.000000E+0
1.680000E+1	1.846860E+1	1.283753E-5	0.000000E+0
1.700000E+1	1.846860E+1	1.300660E-5	0.000000E+0
1.720000E+1	1.846843E+1	1.317373E-5	0.000000E+0
1.740000E+1	1.846843E+1	1.333803E-5	0.000000E+0
1.760000E+1	1.846843E+1	1.350475E-5	0.000000E+0
1.780000E+1	1.846859E+1	1.366921E-5	0.000000E+0
1.800000E+1	1.846859E+1	1.383559E-5	0.000000E+0
1.820000E+1	1.846884E+1	1.399961E-5	0.000000E+0
1.840000E+1	1.846884E+1	1.416280E-5	0.000000E+0
1.860000E+1	1.846884E+1	1.432348E-5	0.000000E+0
1.880000E+1	1.846941E+1	1.448278E-5	0.000000E+0
1.900000E+1	1.846941E+1	1.464407E-5	0.000000E+0
END