IV MEASUREMENT
:start
2016-11-15 14:37:48
:stop
2016-11-15 14:45:41
:device
M200Y_06_HPKTS_2_MOSFET
:tester
Martin
:atmosphere
Air
:environment
Probe Station
:Instruments
VI Kei6487,CV AgE4980A,GI NM,T Kei2700
:Comment
circular, nMOSFET, Ids vs Vgate, Vback= -6.5V,Vds=0.05V, Bef.irrad.
 power lower < 1mW, probe station, wait. time 0 sec,after gluing
Annealing time [min]:
0@0
:temperature [C]
18.790746
:start,stop voltage [V] & number of points
-8.000000,19.000000,136
:Voltage increment and increment speed
1.000000,0.500000
:polarity and ramp mode
negative,0
:Current meter range
Auto
:Averaging (int,ext,NPLC,Median Rank)
3,5
3.000000
3
:legend
bias [V],T[C],Current[Amp],Guard Current[Amp]
BEGIN
-8.000000E+0	1.877993E+1	-4.937781E-12	0.000000E+0
-7.800000E+0	1.877993E+1	-4.969375E-12	0.000000E+0
-7.600000E+0	1.878053E+1	-4.940271E-12	0.000000E+0
-7.400000E+0	1.878053E+1	-4.953869E-12	0.000000E+0
-7.200000E+0	1.878053E+1	-5.014209E-12	0.000000E+0
-7.000000E+0	1.878118E+1	-5.067973E-12	0.000000E+0
-6.800000E+0	1.878118E+1	-5.070869E-12	0.000000E+0
-6.600000E+0	1.878135E+1	-5.247713E-12	0.000000E+0
-6.400000E+0	1.878135E+1	-5.396821E-12	0.000000E+0
-6.200000E+0	1.878135E+1	-5.807236E-12	0.000000E+0
-6.000000E+0	1.878186E+1	-6.414061E-12	0.000000E+0
-5.800000E+0	1.878186E+1	-7.733067E-12	0.000000E+0
-5.600000E+0	1.878186E+1	-9.602642E-12	0.000000E+0
-5.400000E+0	1.878300E+1	-1.190608E-11	0.000000E+0
-5.200000E+0	1.878300E+1	-1.415903E-11	0.000000E+0
-5.000000E+0	1.878300E+1	-1.677763E-11	0.000000E+0
-4.800000E+0	1.878220E+1	-1.945997E-11	0.000000E+0
-4.600000E+0	1.878220E+1	-2.211879E-11	0.000000E+0
-4.400000E+0	1.878320E+1	-2.439368E-11	0.000000E+0
-4.200000E+0	1.878320E+1	-2.615211E-11	0.000000E+0
-4.000000E+0	1.878320E+1	-2.734406E-11	0.000000E+0
-3.800000E+0	1.878405E+1	-2.829423E-11	0.000000E+0
-3.600000E+0	1.878405E+1	-2.904011E-11	0.000000E+0
-3.400000E+0	1.878405E+1	-2.971291E-11	0.000000E+0
-3.200000E+0	1.878377E+1	-3.042123E-11	0.000000E+0
-3.000000E+0	1.878377E+1	-3.110717E-11	0.000000E+0
-2.800000E+0	1.878423E+1	-3.182245E-11	0.000000E+0
-2.600000E+0	1.878423E+1	-3.253143E-11	0.000000E+0
-2.400000E+0	1.878423E+1	-3.326451E-11	0.000000E+0
-2.200000E+0	1.878462E+1	-3.397938E-11	0.000000E+0
-2.000000E+0	1.878462E+1	-3.470056E-11	0.000000E+0
-1.800000E+0	1.878462E+1	-3.539768E-11	0.000000E+0
-1.600000E+0	1.878560E+1	-3.614211E-11	0.000000E+0
-1.400000E+0	1.878560E+1	-3.686021E-11	0.000000E+0
-1.200000E+0	1.878560E+1	-3.758385E-11	0.000000E+0
-1.000000E+0	1.878555E+1	-3.827730E-11	0.000000E+0
-8.000000E-1	1.878555E+1	-3.902243E-11	0.000000E+0
-6.000000E-1	1.878620E+1	-3.965946E-11	0.000000E+0
-4.000000E-1	1.878620E+1	-4.035180E-11	0.000000E+0
-2.000000E-1	1.878620E+1	-4.091685E-11	0.000000E+0
4.829470E-15	1.878646E+1	-4.120111E-11	0.000000E+0
2.000000E-1	1.878646E+1	-4.089923E-11	0.000000E+0
4.000000E-1	1.878646E+1	-4.009029E-11	0.000000E+0
6.000000E-1	1.878705E+1	-3.952271E-11	0.000000E+0
8.000000E-1	1.878705E+1	-3.919798E-11	0.000000E+0
1.000000E+0	1.878761E+1	-3.896198E-11	0.000000E+0
1.200000E+0	1.878761E+1	-3.868647E-11	0.000000E+0
1.400000E+0	1.878761E+1	-3.847713E-11	0.000000E+0
1.600000E+0	1.878835E+1	-3.822482E-11	0.000000E+0
1.800000E+0	1.878835E+1	-3.801127E-11	0.000000E+0
2.000000E+0	1.878835E+1	-3.783793E-11	0.000000E+0
2.200000E+0	1.878843E+1	-3.758189E-11	0.000000E+0
2.400000E+0	1.878843E+1	-3.748332E-11	0.000000E+0
2.600000E+0	1.878843E+1	-3.727708E-11	0.000000E+0
2.800000E+0	1.878870E+1	-3.707163E-11	0.000000E+0
3.000000E+0	1.878870E+1	-3.689702E-11	0.000000E+0
3.200000E+0	1.878962E+1	-3.670042E-11	0.000000E+0
3.400000E+0	1.878962E+1	-3.647191E-11	0.000000E+0
3.600000E+0	1.878962E+1	-3.633461E-11	0.000000E+0
3.800000E+0	1.878975E+1	-3.610144E-11	0.000000E+0
4.000000E+0	1.878975E+1	-3.589612E-11	0.000000E+0
4.200000E+0	1.878975E+1	-3.565710E-11	0.000000E+0
4.400000E+0	1.878980E+1	-3.545492E-11	0.000000E+0
4.600000E+0	1.878980E+1	-3.523254E-11	0.000000E+0
4.800000E+0	1.878980E+1	-3.493500E-11	0.000000E+0
5.000000E+0	1.879084E+1	-3.464700E-11	0.000000E+0
5.200000E+0	1.879084E+1	-3.422424E-11	0.000000E+0
5.400000E+0	1.879044E+1	-9.076773E-12	0.000000E+0
5.600000E+0	1.879044E+1	6.603183E-9	0.000000E+0
5.800000E+0	1.879044E+1	8.918599E-8	0.000000E+0
6.000000E+0	1.879105E+1	2.503046E-7	0.000000E+0
6.200000E+0	1.879105E+1	4.441955E-7	0.000000E+0
6.400000E+0	1.879122E+1	6.501391E-7	0.000000E+0
6.600000E+0	1.879122E+1	8.615085E-7	0.000000E+0
6.800000E+0	1.879122E+1	1.075320E-6	0.000000E+0
7.000000E+0	1.879228E+1	1.290878E-6	0.000000E+0
7.200000E+0	1.879228E+1	1.506730E-6	0.000000E+0
7.400000E+0	1.879228E+1	1.722448E-6	0.000000E+0
7.600000E+0	1.879244E+1	1.938370E-6	0.000000E+0
7.800000E+0	1.879244E+1	2.151615E-6	0.000000E+0
8.000000E+0	1.879374E+1	2.365737E-6	0.000000E+0
8.200000E+0	1.879374E+1	2.579144E-6	0.000000E+0
8.400000E+0	1.879374E+1	2.791360E-6	0.000000E+0
8.600000E+0	1.879340E+1	3.003656E-6	0.000000E+0
8.800000E+0	1.879340E+1	3.214026E-6	0.000000E+0
9.000000E+0	1.879340E+1	3.423015E-6	0.000000E+0
9.200000E+0	1.879373E+1	3.631471E-6	0.000000E+0
9.400000E+0	1.879373E+1	3.838625E-6	0.000000E+0
9.600000E+0	1.879373E+1	4.044772E-6	0.000000E+0
9.800000E+0	1.879394E+1	4.249752E-6	0.000000E+0
1.000000E+1	1.879394E+1	4.453615E-6	0.000000E+0
1.020000E+1	1.879409E+1	4.656530E-6	0.000000E+0
1.040000E+1	1.879409E+1	4.857449E-6	0.000000E+0
1.060000E+1	1.879409E+1	5.057637E-6	0.000000E+0
1.080000E+1	1.879524E+1	5.256992E-6	0.000000E+0
1.100000E+1	1.879524E+1	5.455330E-6	0.000000E+0
1.120000E+1	1.879524E+1	5.652902E-6	0.000000E+0
1.140000E+1	1.879502E+1	5.848946E-6	0.000000E+0
1.160000E+1	1.879502E+1	6.044277E-6	0.000000E+0
1.180000E+1	1.879581E+1	6.238216E-6	0.000000E+0
1.200000E+1	1.879581E+1	6.430026E-6	0.000000E+0
1.220000E+1	1.879581E+1	6.622075E-6	0.000000E+0
1.240000E+1	1.879632E+1	6.813211E-6	0.000000E+0
1.260000E+1	1.879632E+1	7.009904E-6	0.000000E+0
1.280000E+1	1.879632E+1	7.200404E-6	0.000000E+0
1.300000E+1	1.879706E+1	7.388498E-6	0.000000E+0
1.320000E+1	1.879706E+1	7.575371E-6	0.000000E+0
1.340000E+1	1.879706E+1	7.761244E-6	0.000000E+0
1.360000E+1	1.879692E+1	7.945982E-6	0.000000E+0
1.380000E+1	1.879692E+1	8.129396E-6	0.000000E+0
1.400000E+1	1.879761E+1	8.312229E-6	0.000000E+0
1.420000E+1	1.879761E+1	8.493659E-6	0.000000E+0
1.440000E+1	1.879761E+1	8.675023E-6	0.000000E+0
1.460000E+1	1.879778E+1	8.856191E-6	0.000000E+0
1.480000E+1	1.879778E+1	9.035512E-6	0.000000E+0
1.500000E+1	1.879778E+1	9.214508E-6	0.000000E+0
1.520000E+1	1.879853E+1	9.394019E-6	0.000000E+0
1.540000E+1	1.879853E+1	9.570718E-6	0.000000E+0
1.560000E+1	1.879853E+1	9.746906E-6	0.000000E+0
1.580000E+1	1.879885E+1	9.922007E-6	0.000000E+0
1.600000E+1	1.879885E+1	1.009514E-5	0.000000E+0
1.620000E+1	1.879931E+1	1.026798E-5	0.000000E+0
1.640000E+1	1.879931E+1	1.044086E-5	0.000000E+0
1.660000E+1	1.879931E+1	1.061308E-5	0.000000E+0
1.680000E+1	1.879958E+1	1.078513E-5	0.000000E+0
1.700000E+1	1.879958E+1	1.095593E-5	0.000000E+0
1.720000E+1	1.879958E+1	1.112529E-5	0.000000E+0
1.740000E+1	1.880000E+1	1.129322E-5	0.000000E+0
1.760000E+1	1.880000E+1	1.146145E-5	0.000000E+0
1.780000E+1	1.880022E+1	1.162975E-5	0.000000E+0
1.800000E+1	1.880022E+1	1.179708E-5	0.000000E+0
1.820000E+1	1.880022E+1	1.196412E-5	0.000000E+0
1.840000E+1	1.880094E+1	1.213105E-5	0.000000E+0
1.860000E+1	1.880094E+1	1.229505E-5	0.000000E+0
1.880000E+1	1.880094E+1	1.245876E-5	0.000000E+0
1.900000E+1	1.880085E+1	1.262163E-5	0.000000E+0
END