IV MEASUREMENT
:start
2016-12-16 13:03:25
:stop
2016-12-16 13:12:48
:device
M200Y_06_HPKTS_2_MOSFET
:tester
Martin
:atmosphere
Air
:environment
Probe Station
:Instruments
VI Kei6487,CV AgE4980A,GI NM,T Kei2700
:Comment
circular, nMOSFET, Ids vs Vgate, Vback= 0.3V,Vds=0V, Bef.irrad.
 power lower < 1mW, probe station, wait. time 0 sec,after gluing
Annealing time [min]:
0@0
:temperature [C]
20.064674
:start,stop voltage [V] & number of points
-6.000000,19.000000,126
:Voltage increment and increment speed
1.000000,0.500000
:polarity and ramp mode
negative,0
:Current meter range
Auto
:Averaging (int,ext,NPLC,Median Rank)
3,5
3.000000
3
:legend
bias [V],T[C],Current[Amp],Guard Current[Amp]
BEGIN
-6.000000E+0	2.005404E+1	5.841638E-8	0.000000E+0
-5.800000E+0	2.005519E+1	5.841770E-8	0.000000E+0
-5.600000E+0	2.005519E+1	5.842275E-8	0.000000E+0
-5.400000E+0	2.005548E+1	5.841819E-8	0.000000E+0
-5.200000E+0	2.005548E+1	5.842918E-8	0.000000E+0
-5.000000E+0	2.005548E+1	5.842821E-8	0.000000E+0
-4.800000E+0	2.005553E+1	5.844283E-8	0.000000E+0
-4.600000E+0	2.005553E+1	5.843213E-8	0.000000E+0
-4.400000E+0	2.005631E+1	5.842698E-8	0.000000E+0
-4.200000E+0	2.005631E+1	5.844184E-8	0.000000E+0
-4.000000E+0	2.005727E+1	5.844935E-8	0.000000E+0
-3.800000E+0	2.005727E+1	5.849105E-8	0.000000E+0
-3.600000E+0	2.005765E+1	5.849753E-8	0.000000E+0
-3.400000E+0	2.005765E+1	5.851208E-8	0.000000E+0
-3.200000E+0	2.005729E+1	5.850959E-8	0.000000E+0
-3.000000E+0	2.005729E+1	5.851500E-8	0.000000E+0
-2.800000E+0	2.005821E+1	5.853736E-8	0.000000E+0
-2.600000E+0	2.005821E+1	5.860177E-8	0.000000E+0
-2.400000E+0	2.005815E+1	5.866722E-8	0.000000E+0
-2.200000E+0	2.005815E+1	5.873796E-8	0.000000E+0
-2.000000E+0	2.005854E+1	5.884659E-8	0.000000E+0
-1.800000E+0	2.005854E+1	5.902536E-8	0.000000E+0
-1.600000E+0	2.005854E+1	5.927550E-8	0.000000E+0
-1.400000E+0	2.005874E+1	5.961916E-8	0.000000E+0
-1.200000E+0	2.005874E+1	6.009586E-8	0.000000E+0
-1.000000E+0	2.005906E+1	6.064209E-8	0.000000E+0
-8.000000E-1	2.005906E+1	6.142757E-8	0.000000E+0
-6.000000E-1	2.005933E+1	6.272207E-8	0.000000E+0
-4.000000E-1	2.005933E+1	6.486195E-8	0.000000E+0
-2.000000E-1	2.005989E+1	6.785318E-8	0.000000E+0
3.053113E-15	2.005989E+1	7.096028E-8	0.000000E+0
2.000000E-1	2.006038E+1	7.390177E-8	0.000000E+0
4.000000E-1	2.006038E+1	7.631290E-8	0.000000E+0
6.000000E-1	2.006088E+1	7.836809E-8	0.000000E+0
8.000000E-1	2.006088E+1	7.985022E-8	0.000000E+0
1.000000E+0	2.006145E+1	8.016997E-8	0.000000E+0
1.200000E+0	2.006145E+1	7.962482E-8	0.000000E+0
1.400000E+0	2.006129E+1	7.889058E-8	0.000000E+0
1.600000E+0	2.006129E+1	7.822651E-8	0.000000E+0
1.800000E+0	2.006109E+1	7.782304E-8	0.000000E+0
2.000000E+0	2.006109E+1	7.759252E-8	0.000000E+0
2.200000E+0	2.006109E+1	7.750869E-8	0.000000E+0
2.400000E+0	2.006227E+1	7.754068E-8	0.000000E+0
2.600000E+0	2.006227E+1	7.772228E-8	0.000000E+0
2.800000E+0	2.006234E+1	7.792415E-8	0.000000E+0
3.000000E+0	2.006234E+1	7.813577E-8	0.000000E+0
3.200000E+0	2.006210E+1	7.846814E-8	0.000000E+0
3.400000E+0	2.006210E+1	7.887552E-8	0.000000E+0
3.600000E+0	2.006298E+1	7.927031E-8	0.000000E+0
3.800000E+0	2.006298E+1	7.967908E-8	0.000000E+0
4.000000E+0	2.006312E+1	8.005870E-8	0.000000E+0
4.200000E+0	2.006312E+1	8.050145E-8	0.000000E+0
4.400000E+0	2.006368E+1	8.110557E-8	0.000000E+0
4.600000E+0	2.006368E+1	8.166967E-8	0.000000E+0
4.800000E+0	2.006398E+1	8.229607E-8	0.000000E+0
5.000000E+0	2.006398E+1	8.282154E-8	0.000000E+0
5.200000E+0	2.006453E+1	8.321663E-8	0.000000E+0
5.400000E+0	2.006453E+1	8.373123E-8	0.000000E+0
5.600000E+0	2.006411E+1	8.421015E-8	0.000000E+0
5.800000E+0	2.006411E+1	8.467518E-8	0.000000E+0
6.000000E+0	2.006411E+1	8.513253E-8	0.000000E+0
6.200000E+0	2.006465E+1	8.577403E-8	0.000000E+0
6.400000E+0	2.006465E+1	8.618475E-8	0.000000E+0
6.600000E+0	2.006499E+1	8.687149E-8	0.000000E+0
6.800000E+0	2.006499E+1	8.739036E-8	0.000000E+0
7.000000E+0	2.006498E+1	8.801121E-8	0.000000E+0
7.200000E+0	2.006498E+1	8.855505E-8	0.000000E+0
7.400000E+0	2.006522E+1	8.934343E-8	0.000000E+0
7.600000E+0	2.006522E+1	8.988248E-8	0.000000E+0
7.800000E+0	2.006559E+1	9.040325E-8	0.000000E+0
8.000000E+0	2.006559E+1	9.084116E-8	0.000000E+0
8.200000E+0	2.006627E+1	9.121896E-8	0.000000E+0
8.400000E+0	2.006627E+1	9.183461E-8	0.000000E+0
8.600000E+0	2.006676E+1	9.232784E-8	0.000000E+0
8.800000E+0	2.006676E+1	9.300471E-8	0.000000E+0
9.000000E+0	2.006702E+1	9.374129E-8	0.000000E+0
9.200000E+0	2.006702E+1	9.435074E-8	0.000000E+0
9.400000E+0	2.006671E+1	9.474503E-8	0.000000E+0
9.600000E+0	2.006671E+1	9.546541E-8	0.000000E+0
9.800000E+0	2.006671E+1	9.578144E-8	0.000000E+0
1.000000E+1	2.006719E+1	9.625674E-8	0.000000E+0
1.020000E+1	2.006719E+1	9.679032E-8	0.000000E+0
1.040000E+1	2.006768E+1	9.742531E-8	0.000000E+0
1.060000E+1	2.006768E+1	9.778641E-8	0.000000E+0
1.080000E+1	2.006771E+1	9.838685E-8	0.000000E+0
1.100000E+1	2.006771E+1	9.857107E-8	0.000000E+0
1.120000E+1	2.006805E+1	9.933096E-8	0.000000E+0
1.140000E+1	2.006805E+1	9.968545E-8	0.000000E+0
1.160000E+1	2.006864E+1	1.001813E-7	0.000000E+0
1.180000E+1	2.006864E+1	1.002907E-7	0.000000E+0
1.200000E+1	2.006867E+1	1.009230E-7	0.000000E+0
1.220000E+1	2.006867E+1	1.015213E-7	0.000000E+0
1.240000E+1	2.006894E+1	1.020154E-7	0.000000E+0
1.260000E+1	2.006894E+1	1.028038E-7	0.000000E+0
1.280000E+1	2.006952E+1	1.033599E-7	0.000000E+0
1.300000E+1	2.006952E+1	1.037607E-7	0.000000E+0
1.320000E+1	2.006981E+1	1.042208E-7	0.000000E+0
1.340000E+1	2.006981E+1	1.048288E-7	0.000000E+0
1.360000E+1	2.006981E+1	1.049764E-7	0.000000E+0
1.380000E+1	2.006965E+1	1.057359E-7	0.000000E+0
1.400000E+1	2.006965E+1	1.063113E-7	0.000000E+0
1.420000E+1	2.007018E+1	1.066921E-7	0.000000E+0
1.440000E+1	2.007018E+1	1.069662E-7	0.000000E+0
1.460000E+1	2.007116E+1	1.072820E-7	0.000000E+0
1.480000E+1	2.007116E+1	1.079417E-7	0.000000E+0
1.500000E+1	2.007113E+1	1.083198E-7	0.000000E+0
1.520000E+1	2.007113E+1	1.086911E-7	0.000000E+0
1.540000E+1	2.007147E+1	1.094725E-7	0.000000E+0
1.560000E+1	2.007147E+1	1.095100E-7	0.000000E+0
1.580000E+1	2.007156E+1	1.104374E-7	0.000000E+0
1.600000E+1	2.007156E+1	1.109758E-7	0.000000E+0
1.620000E+1	2.007193E+1	1.116277E-7	0.000000E+0
1.640000E+1	2.007193E+1	1.116777E-7	0.000000E+0
1.660000E+1	2.007233E+1	1.118607E-7	0.000000E+0
1.680000E+1	2.007233E+1	1.121782E-7	0.000000E+0
1.700000E+1	2.007233E+1	1.127806E-7	0.000000E+0
1.720000E+1	2.007208E+1	1.132934E-7	0.000000E+0
1.740000E+1	2.007208E+1	1.134870E-7	0.000000E+0
1.760000E+1	2.007285E+1	1.142386E-7	0.000000E+0
1.780000E+1	2.007285E+1	1.148438E-7	0.000000E+0
1.800000E+1	2.007306E+1	1.155967E-7	0.000000E+0
1.820000E+1	2.007306E+1	1.158610E-7	0.000000E+0
1.840000E+1	2.007314E+1	1.165271E-7	0.000000E+0
1.860000E+1	2.007314E+1	1.167712E-7	0.000000E+0
1.880000E+1	2.007362E+1	1.171502E-7	0.000000E+0
1.900000E+1	2.007362E+1	1.178649E-7	0.000000E+0
END