IV MEASUREMENT
:start
2016-12-16 12:38:21
:stop
2016-12-16 12:47:45
:device
M200Y_06_HPKTS_2_MOSFET
:tester
Martin
:atmosphere
Air
:environment
Probe Station
:Instruments
VI Kei6487,CV AgE4980A,GI NM,T Kei2700
:Comment
circular, nMOSFET, Ids vs Vgate, Vback= 0.3V,Vds=0.05V, Bef.irrad.
 power lower < 1mW, probe station, wait. time 0 sec,after gluing
Annealing time [min]:
0@0
:temperature [C]
20.004608
:start,stop voltage [V] & number of points
-6.000000,19.000000,126
:Voltage increment and increment speed
1.000000,0.500000
:polarity and ramp mode
negative,0
:Current meter range
Auto
:Averaging (int,ext,NPLC,Median Rank)
3,5
3.000000
3
:legend
bias [V],T[C],Current[Amp],Guard Current[Amp]
BEGIN
-6.000000E+0	1.998011E+1	2.359812E-7	0.000000E+0
-5.800000E+0	1.998011E+1	2.359004E-7	0.000000E+0
-5.600000E+0	1.999177E+1	2.359443E-7	0.000000E+0
-5.400000E+0	1.999177E+1	2.359741E-7	0.000000E+0
-5.200000E+0	1.999234E+1	2.360189E-7	0.000000E+0
-5.000000E+0	1.999234E+1	2.360486E-7	0.000000E+0
-4.800000E+0	1.999279E+1	2.359674E-7	0.000000E+0
-4.600000E+0	1.999279E+1	2.360216E-7	0.000000E+0
-4.400000E+0	1.999347E+1	2.359703E-7	0.000000E+0
-4.200000E+0	1.999347E+1	2.359508E-7	0.000000E+0
-4.000000E+0	1.999414E+1	2.359969E-7	0.000000E+0
-3.800000E+0	1.999414E+1	2.360005E-7	0.000000E+0
-3.600000E+0	1.999445E+1	2.361212E-7	0.000000E+0
-3.400000E+0	1.999445E+1	2.361449E-7	0.000000E+0
-3.200000E+0	1.999474E+1	2.361095E-7	0.000000E+0
-3.000000E+0	1.999474E+1	2.361051E-7	0.000000E+0
-2.800000E+0	1.999445E+1	2.360704E-7	0.000000E+0
-2.600000E+0	1.999445E+1	2.361690E-7	0.000000E+0
-2.400000E+0	1.999581E+1	2.361765E-7	0.000000E+0
-2.200000E+0	1.999581E+1	2.361469E-7	0.000000E+0
-2.000000E+0	1.999581E+1	2.362086E-7	0.000000E+0
-1.800000E+0	1.999614E+1	2.362400E-7	0.000000E+0
-1.600000E+0	1.999614E+1	2.363273E-7	0.000000E+0
-1.400000E+0	1.999663E+1	2.363818E-7	0.000000E+0
-1.200000E+0	1.999663E+1	2.366121E-7	0.000000E+0
-1.000000E+0	1.999683E+1	2.368764E-7	0.000000E+0
-8.000000E-1	1.999683E+1	2.372343E-7	0.000000E+0
-6.000000E-1	1.999724E+1	2.377342E-7	0.000000E+0
-4.000000E-1	1.999724E+1	2.386517E-7	0.000000E+0
-2.000000E-1	1.999738E+1	2.401847E-7	0.000000E+0
3.053113E-15	1.999738E+1	2.423604E-7	0.000000E+0
2.000000E-1	1.999866E+1	2.458610E-7	0.000000E+0
4.000000E-1	1.999866E+1	2.521547E-7	0.000000E+0
6.000000E-1	1.999866E+1	2.653645E-7	0.000000E+0
8.000000E-1	1.999866E+1	2.940577E-7	0.000000E+0
1.000000E+0	1.999837E+1	3.518283E-7	0.000000E+0
1.200000E+0	1.999837E+1	4.505250E-7	0.000000E+0
1.400000E+0	1.999954E+1	5.902483E-7	0.000000E+0
1.600000E+0	1.999954E+1	7.622418E-7	0.000000E+0
1.800000E+0	1.999954E+1	9.564454E-7	0.000000E+0
2.000000E+0	2.000022E+1	1.164108E-6	0.000000E+0
2.200000E+0	2.000022E+1	1.381825E-6	0.000000E+0
2.400000E+0	2.000041E+1	1.606020E-6	0.000000E+0
2.600000E+0	2.000041E+1	1.833576E-6	0.000000E+0
2.800000E+0	2.000101E+1	2.065173E-6	0.000000E+0
3.000000E+0	2.000101E+1	2.295809E-6	0.000000E+0
3.200000E+0	2.000161E+1	2.528181E-6	0.000000E+0
3.400000E+0	2.000161E+1	2.760791E-6	0.000000E+0
3.600000E+0	2.000189E+1	2.992624E-6	0.000000E+0
3.800000E+0	2.000189E+1	3.224271E-6	0.000000E+0
4.000000E+0	2.000234E+1	3.455101E-6	0.000000E+0
4.200000E+0	2.000234E+1	3.684962E-6	0.000000E+0
4.400000E+0	2.000314E+1	3.913875E-6	0.000000E+0
4.600000E+0	2.000314E+1	4.140753E-6	0.000000E+0
4.800000E+0	2.000289E+1	4.367636E-6	0.000000E+0
5.000000E+0	2.000289E+1	4.593016E-6	0.000000E+0
5.200000E+0	2.000378E+1	4.825282E-6	0.000000E+0
5.400000E+0	2.000378E+1	5.050107E-6	0.000000E+0
5.600000E+0	2.000378E+1	5.271446E-6	0.000000E+0
5.800000E+0	2.000407E+1	5.491210E-6	0.000000E+0
6.000000E+0	2.000407E+1	5.709854E-6	0.000000E+0
6.200000E+0	2.000484E+1	5.926604E-6	0.000000E+0
6.400000E+0	2.000484E+1	6.141897E-6	0.000000E+0
6.600000E+0	2.000549E+1	6.356312E-6	0.000000E+0
6.800000E+0	2.000549E+1	6.568731E-6	0.000000E+0
7.000000E+0	2.000545E+1	6.780635E-6	0.000000E+0
7.200000E+0	2.000545E+1	6.990589E-6	0.000000E+0
7.400000E+0	2.000624E+1	7.198880E-6	0.000000E+0
7.600000E+0	2.000624E+1	7.406177E-6	0.000000E+0
7.800000E+0	2.000680E+1	7.611980E-6	0.000000E+0
8.000000E+0	2.000680E+1	7.816835E-6	0.000000E+0
8.200000E+0	2.000693E+1	8.020627E-6	0.000000E+0
8.400000E+0	2.000693E+1	8.222702E-6	0.000000E+0
8.600000E+0	2.000720E+1	8.423800E-6	0.000000E+0
8.800000E+0	2.000720E+1	8.624310E-6	0.000000E+0
9.000000E+0	2.000756E+1	8.822421E-6	0.000000E+0
9.200000E+0	2.000756E+1	9.019850E-6	0.000000E+0
9.400000E+0	2.000756E+1	9.216284E-6	0.000000E+0
9.600000E+0	2.000813E+1	9.411777E-6	0.000000E+0
9.800000E+0	2.000813E+1	9.606402E-6	0.000000E+0
1.000000E+1	2.000887E+1	9.799484E-6	0.000000E+0
1.020000E+1	2.000887E+1	9.991710E-6	0.000000E+0
1.040000E+1	2.000899E+1	1.018222E-5	0.000000E+0
1.060000E+1	2.000899E+1	1.037135E-5	0.000000E+0
1.080000E+1	2.000973E+1	1.055987E-5	0.000000E+0
1.100000E+1	2.000973E+1	1.074799E-5	0.000000E+0
1.120000E+1	2.000979E+1	1.093499E-5	0.000000E+0
1.140000E+1	2.000979E+1	1.112080E-5	0.000000E+0
1.160000E+1	2.001068E+1	1.130521E-5	0.000000E+0
1.180000E+1	2.001068E+1	1.148906E-5	0.000000E+0
1.200000E+1	2.001083E+1	1.167213E-5	0.000000E+0
1.220000E+1	2.001083E+1	1.185343E-5	0.000000E+0
1.240000E+1	2.001141E+1	1.203465E-5	0.000000E+0
1.260000E+1	2.001141E+1	1.222099E-5	0.000000E+0
1.280000E+1	2.001139E+1	1.240149E-5	0.000000E+0
1.300000E+1	2.001139E+1	1.257993E-5	0.000000E+0
1.320000E+1	2.001139E+1	1.275687E-5	0.000000E+0
1.340000E+1	2.001179E+1	1.293341E-5	0.000000E+0
1.360000E+1	2.001179E+1	1.310898E-5	0.000000E+0
1.380000E+1	2.001262E+1	1.328359E-5	0.000000E+0
1.400000E+1	2.001262E+1	1.345763E-5	0.000000E+0
1.420000E+1	2.001321E+1	1.363007E-5	0.000000E+0
1.440000E+1	2.001321E+1	1.380242E-5	0.000000E+0
1.460000E+1	2.001331E+1	1.397473E-5	0.000000E+0
1.480000E+1	2.001331E+1	1.414531E-5	0.000000E+0
1.500000E+1	2.001407E+1	1.431466E-5	0.000000E+0
1.520000E+1	2.001407E+1	1.448404E-5	0.000000E+0
1.540000E+1	2.001446E+1	1.465150E-5	0.000000E+0
1.560000E+1	2.001446E+1	1.481956E-5	0.000000E+0
1.580000E+1	2.001478E+1	1.498654E-5	0.000000E+0
1.600000E+1	2.001478E+1	1.515328E-5	0.000000E+0
1.620000E+1	2.001520E+1	1.531917E-5	0.000000E+0
1.640000E+1	2.001520E+1	1.548303E-5	0.000000E+0
1.660000E+1	2.001520E+1	1.564672E-5	0.000000E+0
1.680000E+1	2.001564E+1	1.581075E-5	0.000000E+0
1.700000E+1	2.001564E+1	1.597304E-5	0.000000E+0
1.720000E+1	2.001586E+1	1.613497E-5	0.000000E+0
1.740000E+1	2.001586E+1	1.629575E-5	0.000000E+0
1.760000E+1	2.001644E+1	1.645669E-5	0.000000E+0
1.780000E+1	2.001644E+1	1.661686E-5	0.000000E+0
1.800000E+1	2.001632E+1	1.677563E-5	0.000000E+0
1.820000E+1	2.001632E+1	1.693472E-5	0.000000E+0
1.840000E+1	2.001709E+1	1.709370E-5	0.000000E+0
1.860000E+1	2.001709E+1	1.725107E-5	0.000000E+0
1.880000E+1	2.001764E+1	1.740796E-5	0.000000E+0
1.900000E+1	2.001764E+1	1.756449E-5	0.000000E+0
END